10/22/2024 08:48:28Time	T_hot_in(C)	T_cold_in(C)	T_cold_out(C)	T_hot_out(C)	mdot_cold(kg/s)	ASFASIFUAS(kg/s)	Diferencial_cold(bar)	Diferencial_hot(bar)	mdot_hot(kg/s)	ABS_cold(bar)	ABS_hot(bar)	q_cold(kW)	q_hot(kW)	ASFASYFY	Tau_cold_haste	Re_hot	Re_cold	U_global	PSIG_cold(bar)	R_fouling	PSIG_hot(bar)	PSID_hot(bar)	m_dot_hot	PSID_cold(bar)	m_dot_cold
1.75132  	0.00000  	0.00000  	0.00000  	0.00000  	-1.18512  	-0.20833  	-0.86278  	-2.50000  	-3.02442  	-1.25000  	-0.08628  	-0.00000  	-0.00000  	-737.84722  	-254.63905  	-9234.48090  	-3618.55272  	0.00000  	0.00000  	0.00000  	0.00000  	0.00000  	0.00000  	0.00000  
2.75463  	33.02513  	5.14446  	5.46480  	19.98735  	-1.18512  	0.01488  	0.23993  	0.22734  	-3.02442  	0.07277  	-0.08575  	-165.32770  	-1.58808  	67.09770  	70.81334  	-18650.90411  	-4218.26665  	0.00436  	0.00002  	0.00423  	0.00429  	0.00508  	0.00000  	0.00000  
3.75595  	33.02214  	5.14497  	5.46658  	19.98800  	-1.18512  	0.01554  	0.24026  	0.22419  	-3.02442  	0.07174  	-0.08568  	-165.28140  	-1.59437  	66.16842  	70.90867  	-18650.40770  	-4218.40371  	0.00436  	0.00003  	0.00423  	0.00430  	0.00508  	0.00000  	0.00000  
4.75930  	33.01924  	5.14651  	5.46774  	19.98768  	-1.18512  	0.01465  	0.23968  	0.22379  	-3.02442  	0.07199  	-0.08567  	-165.24868  	-1.59248  	66.04899  	70.73898  	-18649.72028  	-4218.56582  	0.00436  	0.00003  	0.00423  	0.00428  	0.00508  	0.00000  	0.00000  
5.76261  	33.01613  	5.14687  	5.46761  	19.98793  	-1.18512  	0.01391  	0.23970  	0.22215  	-3.02442  	0.07224  	-0.08571  	-165.20605  	-1.59007  	65.56482  	70.74391  	-18649.11319  	-4218.58042  	0.00436  	0.00003  	0.00423  	0.00427  	0.00508  	0.00000  	0.00000  
6.76391  	33.01332  	5.14737  	5.46950  	19.98740  	-1.18512  	0.01416  	0.23938  	0.22141  	-3.02442  	0.07234  	-0.08560  	-165.17696  	-1.59693  	65.34563  	70.64964  	-18648.40200  	-4218.72352  	0.00435  	0.00003  	0.00423  	0.00427  	0.00508  	0.00000  	0.00000  
7.76722  	33.01128  	5.14778  	5.46902  	19.98696  	-1.18512  	0.01471  	0.23960  	0.22002  	-3.02442  	0.07272  	-0.08574  	-165.15674  	-1.59251  	64.93751  	70.71409  	-18647.87324  	-4218.71917  	0.00435  	0.00002  	0.00423  	0.00428  	0.00508  	0.00000  	0.00000  
8.77057  	33.00828  	5.14993  	5.46960  	19.98601  	-1.18512  	0.01516  	0.23936  	0.22395  	-3.02442  	0.07330  	-0.08563  	-165.13059  	-1.58475  	66.09659  	70.64568  	-18647.03471  	-4218.88313  	0.00436  	0.00003  	0.00423  	0.00429  	0.00508  	0.00000  	0.00000  
9.77086  	33.00554  	5.14868  	5.47008  	19.98427  	-1.18512  	0.01545  	0.23910  	0.22019  	-3.02442  	0.07228  	-0.08574  	-165.11792  	-1.59332  	64.98539  	70.56737  	-18646.08221  	-4218.83686  	0.00435  	0.00003  	0.00423  	0.00430  	0.00508  	0.00000  	0.00000  
10.77221  	33.00230  	5.14838  	5.46958  	19.98370  	-1.18512  	0.01441  	0.23821  	0.22220  	-3.02442  	0.07262  	-0.08571  	-165.08406  	-1.59232  	65.57912  	70.30411  	-18645.27094  	-4218.78943  	0.00436  	0.00003  	0.00423  	0.00428  	0.00507  	0.00000  	0.00000  
11.77553  	32.99917  	5.14977  	5.46932  	19.98226  	-1.18512  	0.01427  	0.23798  	0.22194  	-3.02442  	0.07234  	-0.08571  	-165.06266  	-1.58418  	65.50282  	70.23762  	-18644.29780  	-4218.85696  	0.00436  	0.00003  	0.00423  	0.00427  	0.00507  	0.00000  	0.00000  
12.77882  	32.99649  	5.14929  	5.46858  	19.98040  	-1.18512  	0.01406  	0.23736  	0.22056  	-3.02442  	0.07379  	-0.08570  	-165.05231  	-1.58288  	65.09601  	70.05378  	-18643.33352  	-4218.78341  	0.00435  	0.00003  	0.00424  	0.00427  	0.00507  	0.00000  	0.00000  
13.78014  	32.99467  	5.14879  	5.46847  	19.97895  	-1.18512  	0.01453  	0.23726  	0.22143  	-3.02442  	0.07264  	-0.08575  	-165.04768  	-1.58479  	65.35158  	70.02478  	-18642.63756  	-4218.74710  	0.00435  	0.00002  	0.00423  	0.00428  	0.00507  	0.00000  	0.00000  
14.78345  	32.99176  	5.14881  	5.46784  	19.97605  	-1.18512  	0.01354  	0.23784  	0.21938  	-3.02442  	0.07190  	-0.08571  	-165.04754  	-1.58155  	64.74857  	70.19556  	-18641.40184  	-4218.71047  	0.00435  	0.00003  	0.00423  	0.00426  	0.00507  	0.00000  	0.00000  
15.78677  	32.98975  	5.14897  	5.46671  	19.97452  	-1.18512  	0.01394  	0.23718  	0.22095  	-3.02442  	0.07281  	-0.08572  	-165.04147  	-1.57520  	65.20996  	70.00216  	-18640.65042  	-4218.65234  	0.00435  	0.00003  	0.00423  	0.00427  	0.00507  	0.00000  	0.00000  
16.78809  	32.98704  	5.14740  	5.46520  	19.97182  	-1.18512  	0.01453  	0.23489  	0.21723  	-3.02442  	0.07221  	-0.08567  	-165.04145  	-1.57548  	64.11444  	69.32384  	-18639.49846  	-4218.46689  	0.00435  	0.00003  	0.00423  	0.00428  	0.00506  	0.00000  	0.00000  
17.79141  	32.98518  	5.14729  	5.46366  	19.96886  	-1.18512  	0.01411  	0.23430  	0.21748  	-3.02442  	0.07232  	-0.08569  	-165.05538  	-1.56845  	64.18798  	69.15122  	-18638.47303  	-4218.36796  	0.00435  	0.00003  	0.00423  	0.00427  	0.00505  	0.00000  	0.00000  
18.79376  	32.98234  	5.14707  	5.46222  	19.96634  	-1.18512  	0.01343  	0.23498  	0.21561  	-3.02442  	0.07275  	-0.08567  	-165.05140  	-1.56233  	63.63552  	69.35097  	-18637.33321  	-4218.26846  	0.00434  	0.00003  	0.00423  	0.00426  	0.00506  	0.00000  	0.00000  
19.79505  	32.98046  	5.14685  	5.46102  	19.96178  	-1.18512  	0.01399  	0.23502  	0.21653  	-3.02442  	0.07306  	-0.08573  	-165.08548  	-1.55747  	63.90725  	69.36357  	-18635.96322  	-4218.18328  	0.00435  	0.00003  	0.00423  	0.00427  	0.00506  	0.00000  	0.00000  
20.79836  	32.97646  	5.14515  	5.45979  	19.95739  	-1.18512  	0.01388  	0.23702  	0.22131  	-3.02442  	0.07321  	-0.08568  	-165.09057  	-1.55983  	65.31628  	69.95363  	-18634.17998  	-4218.00635  	0.00435  	0.00003  	0.00423  	0.00427  	0.00507  	0.00000  	0.00000  
21.80168  	32.97446  	5.14493  	5.45822  	19.95296  	-1.18512  	0.01297  	0.23867  	0.22155  	-3.02442  	0.07238  	-0.08574  	-165.12142  	-1.55315  	65.38786  	70.44042  	-18632.80964  	-4217.89895  	0.00435  	0.00002  	0.00423  	0.00425  	0.00507  	0.00000  	0.00000  
22.80300  	32.97213  	5.14382  	5.45569  	19.95003  	-1.18512  	0.01408  	0.23916  	0.22053  	-3.02442  	0.07100  	-0.08571  	-165.12910  	-1.54611  	65.08660  	70.58663  	-18631.69174  	-4217.68039  	0.00435  	0.00003  	0.00423  	0.00427  	0.00508  	0.00000  	0.00000  
23.80632  	32.96993  	5.14310  	5.45424  	19.94721  	-1.18512  	0.01429  	0.23957  	0.22120  	-3.02442  	0.07231  	-0.08565  	-165.13706  	-1.54247  	65.28549  	70.70759  	-18630.62667  	-4217.55048  	0.00435  	0.00003  	0.00423  	0.00427  	0.00508  	0.00000  	0.00000  
24.80966  	32.96752  	5.14211  	5.45413  	19.94534  	-1.18512  	0.01407  	0.24054  	0.22440  	-3.02442  	0.07292  	-0.08573  	-165.13034  	-1.54682  	66.22933  	70.99362  	-18629.71588  	-4217.48460  	0.00436  	0.00003  	0.00423  	0.00427  	0.00508  	0.00000  	0.00000  
25.81095  	32.96600  	5.14319  	5.45319  	19.94313  	-1.18512  	0.01442  	0.24029  	0.22531  	-3.02442  	0.07275  	-0.08578  	-165.13901  	-1.53681  	66.49647  	70.91847  	-18628.92041  	-4217.49298  	0.00436  	0.00002  	0.00423  	0.00428  	0.00508  	0.00000  	0.00000  
26.81427  	32.96452  	5.14334  	5.45451  	19.94191  	-1.18512  	0.01496  	0.24079  	0.22542  	-3.02442  	0.07059  	-0.08566  	-165.13566  	-1.54260  	66.52940  	71.06754  	-18628.34691  	-4217.58126  	0.00436  	0.00003  	0.00423  	0.00429  	0.00508  	0.00000  	0.00000  
27.81759  	32.96218  	5.14300  	5.45539  	19.94370  	-1.18512  	0.01410  	0.24142  	0.22668  	-3.02442  	0.07233  	-0.08570  	-165.08324  	-1.54864  	66.90133  	71.25356  	-18628.23144  	-4217.61346  	0.00436  	0.00003  	0.00423  	0.00427  	0.00509  	0.00000  	0.00000  
28.81891  	32.96047  	5.14344  	5.45808  	19.94377  	-1.18512  	0.01488  	0.24138  	0.22263  	-3.02442  	0.07191  	-0.08568  	-165.06068  	-1.55979  	65.70714  	71.24117  	-18627.88243  	-4217.80139  	0.00436  	0.00003  	0.00423  	0.00429  	0.00509  	0.00000  	0.00000  
29.82222  	32.95875  	5.14314  	5.45839  	19.94487  	-1.18512  	0.01431  	0.24159  	0.22884  	-3.02442  	0.07266  	-0.08571  	-165.02485  	-1.56281  	67.53966  	71.30121  	-18627.75224  	-4217.80188  	0.00437  	0.00003  	0.00423  	0.00427  	0.00509  	0.00000  	0.00000  
30.82457  	32.95726  	5.14256  	5.45816  	19.94621  	-1.18512  	0.01482  	0.24325  	0.22544  	-3.02442  	0.07316  	-0.08574  	-164.98903  	-1.56460  	66.53678  	71.79334  	-18627.71725  	-4217.75340  	0.00436  	0.00003  	0.00423  	0.00428  	0.00510  	0.00000  	0.00000  
31.82586  	32.95467  	5.14286  	5.46001  	19.94697  	-1.18512  	0.01389  	0.24203  	0.22235  	-3.02442  	0.07364  	-0.08573  	-164.94642  	-1.57227  	65.62453  	71.43270  	-18627.32784  	-4217.88291  	0.00436  	0.00003  	0.00424  	0.00427  	0.00509  	0.00000  	0.00000  
32.82719  	32.95337  	5.14247  	5.45915  	19.94879  	-1.18512  	0.01385  	0.24145  	0.22793  	-3.02442  	0.07235  	-0.08570  	-164.90684  	-1.56992  	67.27088  	71.26007  	-18627.44038  	-4217.80785  	0.00436  	0.00003  	0.00423  	0.00427  	0.00509  	0.00000  	0.00000  
33.83050  	32.95189  	5.14234  	5.46001  	19.95160  	-1.18512  	0.01399  	0.24228  	0.22372  	-3.02442  	0.07218  	-0.08567  	-164.85255  	-1.57485  	66.02752  	71.50770  	-18627.72308  	-4217.85082  	0.00436  	0.00003  	0.00423  	0.00427  	0.00509  	0.00000  	0.00000  
34.83382  	32.95168  	5.14372  	5.45965  	19.95400  	-1.18512  	0.01414  	0.24048  	0.22423  	-3.02442  	0.07370  	-0.08571  	-164.81941  	-1.56624  	66.17849  	70.97544  	-18628.18744  	-4217.91275  	0.00436  	0.00003  	0.00424  	0.00427  	0.00508  	0.00000  	0.00000  
35.83517  	32.94966  	5.14319  	5.46058  	19.95496  	-1.18512  	0.01460  	0.24059  	0.22284  	-3.02442  	0.07279  	-0.08563  	-164.78162  	-1.57346  	65.76892  	71.00642  	-18627.96279  	-4217.93703  	0.00436  	0.00003  	0.00423  	0.00428  	0.00508  	0.00000  	0.00000  
36.83845  	32.94854  	5.14345  	5.46063  	19.95669  	-1.18512  	0.01431  	0.24041  	0.22941  	-3.02442  	0.07322  	-0.08567  	-164.74542  	-1.57243  	67.70856  	70.95480  	-18628.09292  	-4217.95493  	0.00437  	0.00003  	0.00423  	0.00427  	0.00508  	0.00000  	0.00000  
37.84177  	32.94721  	5.14355  	5.46058  	19.95853  	-1.18512  	0.01475  	0.24085  	0.21958  	-3.02442  	0.07199  	-0.08574  	-164.70517  	-1.57169  	64.80640  	71.08345  	-18628.20177  	-4217.95787  	0.00435  	0.00003  	0.00423  	0.00428  	0.00508  	0.00000  	0.00000  
38.84309  	32.94517  	5.14389  	5.46049  	19.95973  	-1.18512  	0.01396  	0.24002  	0.22693  	-3.02442  	0.07205  	-0.08565  	-164.66414  	-1.56952  	66.97588  	70.83919  	-18628.02353  	-4217.97295  	0.00436  	0.00003  	0.00423  	0.00427  	0.00508  	0.00000  	0.00000  
39.84641  	32.94464  	5.14234  	5.45859  	19.96003  	-1.18512  	0.01453  	0.23998  	0.22232  	-3.02442  	0.07146  	-0.08565  	-164.65367  	-1.56782  	65.61408  	70.82879  	-18627.97263  	-4217.76558  	0.00436  	0.00003  	0.00423  	0.00428  	0.00508  	0.00000  	0.00000  
40.84975  	32.94266  	5.14192  	5.45829  	19.96130  	-1.18512  	0.01421  	0.23964  	0.22074  	-3.02442  	0.07285  	-0.08571  	-164.61255  	-1.56839  	65.14984  	70.72784  	-18627.82261  	-4217.72254  	0.00435  	0.00003  	0.00423  	0.00427  	0.00508  	0.00000  	0.00000  
41.85105  	32.94244  	5.14219  	5.45881  	19.96166  	-1.18512  	0.01506  	0.24121  	0.22167  	-3.02442  	0.07217  	-0.08567  	-164.60517  	-1.56965  	65.42472  	71.19151  	-18627.85367  	-4217.77022  	0.00435  	0.00003  	0.00423  	0.00429  	0.00509  	0.00000  	0.00000  
42.85338  	32.94177  	5.14302  	5.46043  	19.96222  	-1.18512  	0.01508  	0.23912  	0.22270  	-3.02442  	0.07183  	-0.08565  	-164.58941  	-1.57354  	65.72697  	70.57217  	-18627.82948  	-4217.91712  	0.00436  	0.00003  	0.00423  	0.00429  	0.00508  	0.00000  	0.00000  
43.85668  	32.94172  	5.14356  	5.46156  	19.96253  	-1.18512  	0.01454  	0.23981  	0.22159  	-3.02442  	0.07280  	-0.08575  	-164.58489  	-1.57649  	65.39968  	70.77710  	-18627.88426  	-4218.01768  	0.00435  	0.00002  	0.00423  	0.00428  	0.00508  	0.00000  	0.00000  
44.85800  	32.93977  	5.14409  	5.46156  	19.96186  	-1.18512  	0.01438  	0.23978  	0.22199  	-3.02442  	0.07337  	-0.08568  	-164.56848  	-1.57384  	65.51726  	70.76980  	-18627.32728  	-4218.04926  	0.00436  	0.00003  	0.00423  	0.00428  	0.00508  	0.00000  	0.00000  
45.86132  	32.93906  	5.14494  	5.46420  	19.96140  	-1.18512  	0.01356  	0.23944  	0.22126  	-3.02442  	0.07429  	-0.08568  	-164.56527  	-1.58273  	65.30191  	70.66778  	-18627.07739  	-4218.25940  	0.00435  	0.00003  	0.00424  	0.00426  	0.00508  	0.00000  	0.00000  
46.86463  	32.93859  	5.14484  	5.46573  	19.96067  	-1.18512  	0.01377  	0.23859  	0.21975  	-3.02442  	0.07376  	-0.08574  	-164.56848  	-1.59082  	64.85749  	70.41686  	-18626.82436  	-4218.34503  	0.00435  	0.00002  	0.00424  	0.00426  	0.00507  	0.00000  	0.00000  
47.86595  	32.93778  	5.14536  	5.46633  	19.95948  	-1.18512  	0.01427  	0.23824  	0.22150  	-3.02442  	0.07348  	-0.08569  	-164.57327  	-1.59123  	65.37338  	70.31477  	-18626.39741  	-4218.41239  	0.00435  	0.00003  	0.00424  	0.00427  	0.00507  	0.00000  	0.00000  
48.86930  	32.93645  	5.14721  	5.46595  	19.95888  	-1.18512  	0.01460  	0.23819  	0.21713  	-3.02442  	0.07291  	-0.08569  	-164.56397  	-1.58012  	64.08341  	70.29796  	-18625.98936  	-4218.50080  	0.00435  	0.00003  	0.00423  	0.00428  	0.00507  	0.00000  	0.00000  
49.87262  	32.93579  	5.14762  	5.46642  	19.95774  	-1.18512  	0.01426  	0.23803  	0.22069  	-3.02442  	0.07240  	-0.08571  	-164.57015  	-1.58043  	65.13396  	70.25145  	-18625.60508  	-4218.55358  	0.00435  	0.00003  	0.00423  	0.00427  	0.00507  	0.00000  	0.00000  
50.87291  	32.93542  	5.14713  	5.46732  	19.95594  	-1.18512  	0.01356  	0.23650  	0.22299  	-3.02442  	0.07154  	-0.08567  	-164.58824  	-1.58734  	65.81425  	69.80034  	-18625.14421  	-4218.57782  	0.00436  	0.00003  	0.00423  	0.00426  	0.00506  	0.00000  	0.00000  
51.87623  	32.93411  	5.14822  	5.46717  	19.95451  	-1.18512  	0.01528  	0.23616  	0.21915  	-3.02442  	0.07141  	-0.08571  	-164.58963  	-1.58116  	64.67938  	69.70082  	-18624.56111  	-4218.63463  	0.00435  	0.00003  	0.00423  	0.00429  	0.00506  	0.00000  	0.00000  
52.87954  	32.93423  	5.14856  	5.46685  	19.95309  	-1.18512  	0.01540  	0.23645  	0.21931  	-3.02442  	0.07249  	-0.08570  	-164.60912  	-1.57789  	64.72641  	69.78468  	-18624.28536  	-4218.63584  	0.00435  	0.00003  	0.00423  	0.00430  	0.00506  	0.00000  	0.00000  
53.88086  	32.93375  	5.14801  	5.46649  	19.95098  	-1.18512  	0.01397  	0.23641  	0.21992  	-3.02442  	0.07165  	-0.08567  	-164.62998  	-1.57886  	64.90570  	69.77328  	-18623.73378  	-4218.58140  	0.00435  	0.00003  	0.00423  	0.00427  	0.00506  	0.00000  	0.00000  
54.88219  	32.93345  	5.14794  	5.46569  	19.94852  	-1.18512  	0.01433  	0.23553  	0.21629  	-3.02442  	0.07330  	-0.08570  	-164.65731  	-1.57524  	63.83481  	69.51504  	-18623.14781  	-4218.52941  	0.00435  	0.00003  	0.00423  	0.00428  	0.00506  	0.00000  	0.00000  
55.88553  	32.93299  	5.14761  	5.46535  	19.94546  	-1.18512  	0.01435  	0.23503  	0.21736  	-3.02442  	0.07266  	-0.08573  	-164.69032  	-1.57522  	64.15267  	69.36648  	-18622.39953  	-4218.48897  	0.00435  	0.00003  	0.00423  	0.00428  	0.00506  	0.00000  	0.00000  
56.88882  	32.93176  	5.14804  	5.46487  	19.94226  	-1.18512  	0.01405  	0.23566  	0.22024  	-3.02442  	0.07261  	-0.08570  	-164.71532  	-1.57068  	65.00234  	69.55097  	-18621.45537  	-4218.48521  	0.00435  	0.00003  	0.00423  	0.00427  	0.00506  	0.00000  	0.00000  
57.89014  	32.93203  	5.14731  	5.46349  	19.93976  	-1.18512  	0.01332  	0.23751  	0.22170  	-3.02442  	0.07226  	-0.08564  	-164.75045  	-1.56749  	65.43098  	70.09785  	-18620.98122  	-4218.35909  	0.00435  	0.00003  	0.00423  	0.00426  	0.00507  	0.00000  	0.00000  
58.89346  	32.93197  	5.14785  	5.46245  	19.93711  	-1.18512  	0.01465  	0.23799  	0.22154  	-3.02442  	0.07346  	-0.08568  	-164.78329  	-1.55962  	65.38598  	70.24115  	-18620.40711  	-4218.32871  	0.00435  	0.00003  	0.00424  	0.00428  	0.00507  	0.00000  	0.00000  
59.89677  	32.93147  	5.14691  	5.46116  	19.93389  	-1.18512  	0.01491  	0.23840  	0.22229  	-3.02442  	0.07170  	-0.08568  	-164.81797  	-1.55791  	65.60538  	70.36238  	-18619.61560  	-4218.19508  	0.00436  	0.00003  	0.00423  	0.00429  	0.00507  	0.00000  	0.00000  
60.89809  	32.93099  	5.14708  	5.45975  	19.93229  	-1.18512  	0.01562  	0.24044  	0.22567  	-3.02442  	0.07154  	-0.08566  	-164.83217  	-1.55003  	66.60367  	70.96285  	-18619.17199  	-4218.12045  	0.00436  	0.00003  	0.00423  	0.00430  	0.00508  	0.00000  	0.00000  
61.90141  	32.93117  	5.14608  	5.45792  	19.93091  	-1.18512  	0.01546  	0.24012  	0.22535  	-3.02442  	0.07274  	-0.08563  	-164.85196  	-1.54597  	66.50920  	70.86895  	-18618.91798  	-4217.95029  	0.00436  	0.00003  	0.00423  	0.00430  	0.00508  	0.00000  	0.00000  
62.90375  	32.93117  	5.14569  	5.45726  	19.93062  	-1.18512  	0.01515  	0.24041  	0.22158  	-3.02442  	0.07157  	-0.08572  	-164.85576  	-1.54457  	65.39570  	70.95411  	-18618.85736  	-4217.88730  	0.00435  	0.00003  	0.00423  	0.00429  	0.00508  	0.00000  	0.00000  
63.90505  	32.93116  	5.14432  	5.45733  	19.93152  	-1.18512  	0.01458  	0.24090  	0.22379  	-3.02442  	0.07298  	-0.08573  	-164.84419  	-1.55173  	66.04874  	71.10000  	-18619.04513  	-4217.80908  	0.00436  	0.00003  	0.00423  	0.00428  	0.00509  	0.00000  	0.00000  
64.90837  	32.93069  	5.14435  	5.45656  	19.93136  	-1.18512  	0.01408  	0.24122  	0.22485  	-3.02442  	0.07157  	-0.08572  	-164.84033  	-1.54780  	66.36140  	71.19282  	-18618.91037  	-4217.76497  	0.00436  	0.00003  	0.00423  	0.00427  	0.00509  	0.00000  	0.00000  
65.91168  	32.93095  	5.14392  	5.45720  	19.93304  	-1.18512  	0.01444  	0.24159  	0.22337  	-3.02442  	0.07252  	-0.08569  	-164.82237  	-1.55306  	65.92637  	71.30266  	-18619.32398  	-4217.77754  	0.00436  	0.00003  	0.00423  	0.00428  	0.00509  	0.00000  	0.00000  
66.91300  	32.93227  	5.14401  	5.45781  	19.93572  	-1.18512  	0.01438  	0.24266  	0.22707  	-3.02442  	0.07232  	-0.08568  	-164.80503  	-1.55569  	67.01771  	71.61776  	-18620.17570  	-4217.81959  	0.00436  	0.00003  	0.00423  	0.00428  	0.00509  	0.00000  	0.00000  
67.91632  	32.93226  	5.14293  	5.45760  	19.93827  	-1.18512  	0.01474  	0.24280  	0.22273  	-3.02442  	0.07148  	-0.08569  	-164.77266  	-1.55997  	65.73773  	71.66093  	-18620.71513  	-4217.74243  	0.00436  	0.00003  	0.00423  	0.00428  	0.00509  	0.00000  	0.00000  
68.91963  	32.93215  	5.14248  	5.45747  	19.94053  	-1.18512  	0.01456  	0.24216  	0.22235  	-3.02442  	0.07271  	-0.08579  	-164.74264  	-1.56155  	65.62351  	71.47046  	-18621.17075  	-4217.70682  	0.00436  	0.00002  	0.00423  	0.00428  	0.00509  	0.00000  	0.00000  
69.92096  	32.93174  	5.14254  	5.45712  	19.94305  	-1.18512  	0.01318  	0.24278  	0.22597  	-3.02442  	0.07271  	-0.08573  	-164.70543  	-1.55954  	66.69202  	71.65336  	-18621.62145  	-4217.68952  	0.00436  	0.00003  	0.00423  	0.00425  	0.00509  	0.00000  	0.00000  
70.92427  	32.93134  	5.14282  	5.45831  	19.94433  	-1.18512  	0.01366  	0.24241  	0.22057  	-3.02442  	0.07365  	-0.08573  	-164.68410  	-1.56406  	65.09825  	71.54360  	-18621.80814  	-4217.77798  	0.00435  	0.00003  	0.00424  	0.00426  	0.00509  	0.00000  	0.00000  
71.92659  	32.93151  	5.14284  	5.45834  	19.94807  	-1.18512  	0.01460  	0.24247  	0.22368  	-3.02442  	0.07215  	-0.08570  	-164.63882  	-1.56411  	66.01543  	71.56186  	-18622.63822  	-4217.78078  	0.00436  	0.00003  	0.00423  	0.00428  	0.00509  	0.00000  	0.00000  
72.92791  	32.93131  	5.14208  	5.45916  	19.94907  	-1.18512  	0.01393  	0.24169  	0.22712  	-3.02442  	0.07268  	-0.08569  	-164.62354  	-1.57188  	67.03156  	71.33195  	-18622.80876  	-4217.78472  	0.00436  	0.00003  	0.00423  	0.00427  	0.00509  	0.00000  	0.00000  
