10/15/2024 10:20:40Time	T_hot_in(C)	T_cold_in(C)	T_cold_out(C)	T_hot_out(C)	mdot_cold(kg/s)	ASFASIFUAS(kg/s)	Diferencial_cold(bar)	Diferencial_hot(bar)	mdot_hot(kg/s)	ABS_cold(bar)	ABS_hot(bar)	q_cold(kW)	q_hot(kW)	ASFASYFY	Tau_cold_haste	Re_hot	Re_cold	U_global	PSIG_cold(bar)	R_fouling	PSIG_hot(bar)	PSID_hot(bar)	m_dot_hot	PSID_cold(bar)	m_dot_cold
1.73935  	0.00000  	0.00000  	0.00000  	0.00000  	-1.18512  	-0.20833  	-0.86278  	-2.50000  	-3.02442  	-1.25000  	-0.08628  	-0.00000  	-0.00000  	-737.84722  	-254.63905  	-9234.48090  	-3618.55272  	0.00000  	0.00000  	0.00000  	0.00000  	0.00000  	0.00000  	0.00000  
2.74267  	22.96267  	49.57946  	49.36134  	33.05660  	-1.18512  	0.01962  	0.41011  	0.39782  	-3.02442  	0.06305  	-0.08561  	-127.65114  	-1.08132  	117.41296  	121.04011  	-19294.52265  	-11386.74870  	0.00464  	0.00003  	0.00420  	0.00438  	0.00586  	0.00000  	0.00000  
3.74399  	22.96301  	49.58186  	49.36316  	33.05296  	-1.18512  	0.02022  	0.41126  	0.39910  	-3.02442  	0.06239  	-0.08568  	-127.60069  	-1.08421  	117.79135  	121.37790  	-19293.81279  	-11387.14224  	0.00464  	0.00003  	0.00420  	0.00439  	0.00587  	0.00000  	0.00000  
4.74728  	22.96398  	49.58405  	49.36495  	33.04849  	-1.18512  	0.02055  	0.41206  	0.39726  	-3.02442  	0.06255  	-0.08569  	-127.53201  	-1.08618  	117.24833  	121.61552  	-19293.05835  	-11387.51335  	0.00464  	0.00003  	0.00420  	0.00439  	0.00587  	0.00000  	0.00000  
5.75062  	22.96355  	49.58605  	49.36595  	33.04292  	-1.18512  	0.01948  	0.40965  	0.39670  	-3.02442  	0.06316  	-0.08568  	-127.46691  	-1.09115  	117.08019  	120.90249  	-19291.76816  	-11387.79395  	0.00463  	0.00003  	0.00420  	0.00437  	0.00586  	0.00000  	0.00000  
6.75194  	22.96354  	49.58746  	49.36686  	33.03775  	-1.18512  	0.02049  	0.40774  	0.39674  	-3.02442  	0.06344  	-0.08564  	-127.40162  	-1.09360  	117.09284  	120.34007  	-19290.65080  	-11388.00937  	0.00463  	0.00003  	0.00420  	0.00439  	0.00585  	0.00000  	0.00000  
7.75523  	22.96288  	49.59079  	49.36962  	33.03298  	-1.18512  	0.01974  	0.40767  	0.39450  	-3.02442  	0.06282  	-0.08569  	-127.34968  	-1.09643  	116.43329  	120.31996  	-19289.48070  	-11388.57730  	0.00463  	0.00003  	0.00420  	0.00438  	0.00585  	0.00000  	0.00000  
8.75758  	22.96179  	49.59200  	49.37198  	33.02778  	-1.18512  	0.02027  	0.40495  	0.39575  	-3.02442  	0.06180  	-0.08575  	-127.29769  	-1.09074  	116.80258  	119.51683  	-19288.12639  	-11388.91065  	0.00463  	0.00002  	0.00420  	0.00439  	0.00584  	0.00000  	0.00000  
9.75890  	22.96131  	49.59435  	49.37392  	33.02233  	-1.18512  	0.01974  	0.40494  	0.39350  	-3.02442  	0.06211  	-0.08568  	-127.23487  	-1.09277  	116.13677  	119.51385  	-19286.85145  	-11389.30937  	0.00463  	0.00003  	0.00420  	0.00438  	0.00584  	0.00000  	0.00000  
10.76222  	22.96067  	49.59682  	49.37543  	33.01831  	-1.18512  	0.01989  	0.40411  	0.39386  	-3.02442  	0.06102  	-0.08566  	-127.19210  	-1.09750  	116.24406  	119.26987  	-19285.84771  	-11389.68159  	0.00463  	0.00003  	0.00420  	0.00438  	0.00584  	0.00000  	0.00000  
11.76553  	22.96036  	49.59845  	49.37882  	33.01479  	-1.18512  	0.01904  	0.40329  	0.39316  	-3.02442  	0.06204  	-0.08567  	-127.15148  	-1.08878  	116.03792  	119.02640  	-19285.02260  	-11390.14928  	0.00463  	0.00003  	0.00420  	0.00437  	0.00583  	0.00000  	0.00000  
12.76685  	22.95946  	49.60013  	49.38166  	33.01303  	-1.18512  	0.01939  	0.40212  	0.39022  	-3.02442  	0.06227  	-0.08563  	-127.14064  	-1.08309  	115.17040  	118.68060  	-19284.45182  	-11390.57082  	0.00462  	0.00003  	0.00420  	0.00437  	0.00583  	0.00000  	0.00000  
13.77017  	22.95769  	49.60288  	49.38283  	33.01178  	-1.18512  	0.02025  	0.40141  	0.38646  	-3.02442  	0.06350  	-0.08576  	-127.14722  	-1.09093  	114.05897  	118.47059  	-19283.80155  	-11390.93618  	0.00462  	0.00002  	0.00420  	0.00439  	0.00582  	0.00000  	0.00000  
14.77348  	22.95741  	49.60541  	49.38479  	33.01014  	-1.18512  	0.01951  	0.39872  	0.38852  	-3.02442  	0.06233  	-0.08564  	-127.12996  	-1.09372  	114.66774  	117.67702  	-19283.38597  	-11391.35493  	0.00462  	0.00003  	0.00420  	0.00437  	0.00581  	0.00000  	0.00000  
15.77481  	22.95587  	49.60732  	49.38670  	33.00948  	-1.18512  	0.01899  	0.39804  	0.38761  	-3.02442  	0.06131  	-0.08570  	-127.14123  	-1.09373  	114.39924  	117.47723  	-19282.91341  	-11391.71035  	0.00462  	0.00003  	0.00420  	0.00436  	0.00581  	0.00000  	0.00000  
16.77710  	22.95456  	49.60936  	49.38983  	33.01022  	-1.18512  	0.01979  	0.39681  	0.38108  	-3.02442  	0.06253  	-0.08574  	-127.16700  	-1.08829  	112.47245  	117.11352  	-19282.79060  	-11392.19246  	0.00461  	0.00003  	0.00420  	0.00438  	0.00580  	0.00000  	0.00000  
17.78044  	22.95376  	49.61188  	49.39183  	33.01247  	-1.18512  	0.01917  	0.39476  	0.38041  	-3.02442  	0.06279  	-0.08569  	-127.20563  	-1.09092  	112.27362  	116.50909  	-19283.10333  	-11392.61443  	0.00461  	0.00003  	0.00420  	0.00437  	0.00579  	0.00000  	0.00000  
18.78176  	22.95285  	49.61376  	49.39350  	33.01418  	-1.18512  	0.01928  	0.39166  	0.38157  	-3.02442  	0.06278  	-0.08568  	-127.23875  	-1.09192  	112.61543  	115.59385  	-19283.27672  	-11392.94544  	0.00461  	0.00003  	0.00420  	0.00437  	0.00578  	0.00000  	0.00000  
19.78209  	22.95138  	49.61592  	49.39565  	33.01776  	-1.18512  	0.01930  	0.39159  	0.38039  	-3.02442  	0.06127  	-0.08564  	-127.30264  	-1.09199  	112.26841  	115.57370  	-19283.72838  	-11393.34677  	0.00461  	0.00003  	0.00420  	0.00437  	0.00578  	0.00000  	0.00000  
20.78440  	22.95047  	49.61773  	49.39780  	33.02174  	-1.18512  	0.01932  	0.38886  	0.36973  	-3.02442  	0.06268  	-0.08574  	-127.36440  	-1.09031  	109.12316  	114.76815  	-19284.38885  	-11393.71671  	0.00459  	0.00002  	0.00420  	0.00437  	0.00577  	0.00000  	0.00000  
21.78573  	22.94876  	49.62034  	49.40036  	33.02636  	-1.18512  	0.01860  	0.38627  	0.37609  	-3.02442  	0.06330  	-0.08572  	-127.44455  	-1.09055  	110.99922  	114.00275  	-19285.01715  	-11394.19777  	0.00460  	0.00003  	0.00420  	0.00436  	0.00575  	0.00000  	0.00000  
22.78705  	22.94695  	49.62305  	49.40193  	33.03197  	-1.18512  	0.02068  	0.38456  	0.36686  	-3.02442  	0.06221  	-0.08571  	-127.53839  	-1.09620  	108.27511  	113.49905  	-19285.83466  	-11394.59752  	0.00459  	0.00003  	0.00420  	0.00440  	0.00575  	0.00000  	0.00000  
23.78937  	22.94718  	49.62504  	49.40447  	33.03916  	-1.18512  	0.01941  	0.38657  	0.37604  	-3.02442  	0.06150  	-0.08573  	-127.62636  	-1.09344  	110.98354  	114.09265  	-19287.43202  	-11395.02016  	0.00460  	0.00003  	0.00420  	0.00437  	0.00576  	0.00000  	0.00000  
24.79268  	22.94553  	49.62715  	49.40749  	33.04648  	-1.18512  	0.01840  	0.38998  	0.37543  	-3.02442  	0.06250  	-0.08566  	-127.73976  	-1.08896  	110.80381  	115.09694  	-19288.65163  	-11395.49863  	0.00460  	0.00003  	0.00420  	0.00435  	0.00577  	0.00000  	0.00000  
25.79399  	22.94516  	49.62933  	49.40943  	33.05345  	-1.18512  	0.01902  	0.39390  	0.37912  	-3.02442  	0.06136  	-0.08565  	-127.83267  	-1.09015  	111.89162  	116.25667  	-19290.07459  	-11395.88234  	0.00461  	0.00003  	0.00420  	0.00437  	0.00579  	0.00000  	0.00000  
26.79729  	22.94501  	49.63105  	49.41189  	33.06063  	-1.18512  	0.01808  	0.39686  	0.37907  	-3.02442  	0.06072  	-0.08575  	-127.92536  	-1.08648  	111.87721  	117.12989  	-19291.58849  	-11396.27161  	0.00461  	0.00002  	0.00419  	0.00435  	0.00580  	0.00000  	0.00000  
27.79964  	22.94640  	49.63441  	49.41438  	33.06672  	-1.18512  	0.01941  	0.39870  	0.38656  	-3.02442  	0.06324  	-0.08565  	-127.98477  	-1.09080  	114.09002  	117.67290  	-19293.19868  	-11396.81790  	0.00462  	0.00003  	0.00420  	0.00437  	0.00581  	0.00000  	0.00000  
28.80093  	22.94684  	49.63668  	49.41709  	33.07156  	-1.18512  	0.01929  	0.40130  	0.38961  	-3.02442  	0.06259  	-0.08572  	-128.04040  	-1.08860  	114.98816  	118.43955  	-19294.33357  	-11397.28134  	0.00462  	0.00003  	0.00420  	0.00437  	0.00582  	0.00000  	0.00000  
29.80328  	22.94793  	49.63810  	49.41967  	33.07426  	-1.18512  	0.02034  	0.40334  	0.38879  	-3.02442  	0.06241  	-0.08569  	-128.06069  	-1.08287  	114.74644  	119.04266  	-19295.15199  	-11397.65468  	0.00462  	0.00003  	0.00420  	0.00439  	0.00583  	0.00000  	0.00000  
30.80660  	22.94864  	49.64078  	49.42167  	33.07552  	-1.18512  	0.01994  	0.40447  	0.39324  	-3.02442  	0.06152  	-0.08564  	-128.06774  	-1.08621  	116.06118  	119.37526  	-19295.57475  	-11398.09142  	0.00463  	0.00003  	0.00420  	0.00438  	0.00584  	0.00000  	0.00000  
31.80789  	22.95002  	49.64247  	49.42422  	33.07615  	-1.18512  	0.01918  	0.40754  	0.39560  	-3.02442  	0.06285  	-0.08567  	-128.05821  	-1.08198  	116.75828  	120.28173  	-19296.00827  	-11398.48679  	0.00463  	0.00003  	0.00420  	0.00437  	0.00585  	0.00000  	0.00000  
32.81120  	22.95120  	49.64483  	49.42639  	33.07468  	-1.18512  	0.01958  	0.40610  	0.39655  	-3.02442  	0.06051  	-0.08570  	-128.02471  	-1.08287  	117.03699  	119.85506  	-19295.94740  	-11398.90895  	0.00463  	0.00003  	0.00419  	0.00438  	0.00585  	0.00000  	0.00000  
33.81355  	22.95100  	49.64733  	49.42857  	33.07265  	-1.18512  	0.02067  	0.40907  	0.39279  	-3.02442  	0.06176  	-0.08573  	-128.00153  	-1.08451  	115.92652  	120.73126  	-19295.46425  	-11399.34498  	0.00463  	0.00003  	0.00420  	0.00440  	0.00586  	0.00000  	0.00000  
34.81487  	22.95224  	49.65016  	49.42974  	33.07038  	-1.18512  	0.01860  	0.40902  	0.40008  	-3.02442  	0.06242  	-0.08560  	-127.95722  	-1.09271  	118.08055  	120.71761  	-19295.24415  	-11399.71902  	0.00464  	0.00003  	0.00420  	0.00436  	0.00586  	0.00000  	0.00000  
35.81816  	22.95346  	49.65092  	49.43149  	33.06571  	-1.18512  	0.01964  	0.41077  	0.39672  	-3.02442  	0.06136  	-0.08565  	-127.88266  	-1.08785  	117.08862  	121.23391  	-19294.50227  	-11399.95223  	0.00463  	0.00003  	0.00420  	0.00438  	0.00587  	0.00000  	0.00000  
36.82051  	22.95378  	49.65531  	49.43339  	33.06060  	-1.18512  	0.01937  	0.41142  	0.40169  	-3.02442  	0.06164  	-0.08569  	-127.81401  	-1.10018  	118.55390  	121.42698  	-19293.46824  	-11400.53877  	0.00464  	0.00003  	0.00420  	0.00437  	0.00587  	0.00000  	0.00000  
37.82180  	22.95505  	49.65679  	49.43591  	33.05687  	-1.18512  	0.02010  	0.41026  	0.39993  	-3.02442  	0.06169  	-0.08565  	-127.75085  	-1.09500  	118.03636  	121.08510  	-19292.93970  	-11400.91259  	0.00464  	0.00003  	0.00420  	0.00439  	0.00587  	0.00000  	0.00000  
38.82315  	22.95495  	49.65882  	49.43745  	33.05109  	-1.18512  	0.01947  	0.40923  	0.39641  	-3.02442  	0.06060  	-0.08572  	-127.67897  	-1.09746  	116.99747  	120.78075  	-19291.67416  	-11401.24459  	0.00463  	0.00003  	0.00419  	0.00437  	0.00586  	0.00000  	0.00000  
39.82647  	22.95521  	49.66070  	49.43887  	33.04594  	-1.18512  	0.01868  	0.40910  	0.39666  	-3.02442  	0.06182  	-0.08565  	-127.61047  	-1.09969  	117.07014  	120.74082  	-19290.62085  	-11401.55311  	0.00463  	0.00003  	0.00420  	0.00436  	0.00586  	0.00000  	0.00000  
40.82779  	22.95494  	49.66447  	49.44144  	33.04120  	-1.18512  	0.01953  	0.40613  	0.39394  	-3.02442  	0.06308  	-0.08567  	-127.55393  	-1.10570  	116.26631  	119.86508  	-19289.54194  	-11402.14397  	0.00463  	0.00003  	0.00420  	0.00437  	0.00585  	0.00000  	0.00000  
41.83011  	22.95506  	49.66641  	49.44296  	33.03748  	-1.18512  	0.02093  	0.40674  	0.39203  	-3.02442  	0.06230  	-0.08570  	-127.50549  	-1.10778  	115.70325  	120.04608  	-19288.76728  	-11402.46676  	0.00463  	0.00003  	0.00420  	0.00440  	0.00585  	0.00000  	0.00000  
42.83243  	22.95522  	49.66863  	49.44582  	33.03264  	-1.18512  	0.02015  	0.40539  	0.39534  	-3.02442  	0.06181  	-0.08572  	-127.44225  	-1.10455  	116.67887  	119.64692  	-19287.76017  	-11402.93984  	0.00463  	0.00003  	0.00420  	0.00439  	0.00584  	0.00000  	0.00000  
43.83574  	22.95469  	49.67096  	49.44799  	33.02908  	-1.18512  	0.02008  	0.40555  	0.38987  	-3.02442  	0.06228  	-0.08569  	-127.40387  	-1.10533  	115.06436  	119.69428  	-19286.87720  	-11403.35990  	0.00462  	0.00003  	0.00420  	0.00439  	0.00584  	0.00000  	0.00000  
44.83706  	22.95420  	49.67267  	49.45120  	33.02654  	-1.18512  	0.02202  	0.40317  	0.38888  	-3.02442  	0.06105  	-0.08563  	-127.37791  	-1.09790  	114.77253  	118.99007  	-19286.22557  	-11403.81892  	0.00462  	0.00003  	0.00420  	0.00442  	0.00583  	0.00000  	0.00000  
45.84038  	22.95344  	49.67473  	49.45341  	33.02504  	-1.18512  	0.01923  	0.40209  	0.38979  	-3.02442  	0.06316  	-0.08567  	-127.36867  	-1.09721  	115.04085  	118.67369  	-19285.73933  	-11404.21754  	0.00462  	0.00003  	0.00420  	0.00437  	0.00583  	0.00000  	0.00000  
46.84370  	22.95272  	49.67719  	49.45472  	33.02398  	-1.18512  	0.02038  	0.40057  	0.38583  	-3.02442  	0.06304  	-0.08567  	-127.36435  	-1.10290  	113.87232  	118.22379  	-19285.35566  	-11404.56894  	0.00462  	0.00003  	0.00420  	0.00439  	0.00582  	0.00000  	0.00000  
47.84502  	22.95248  	49.68024  	49.45700  	33.02360  	-1.18512  	0.02000  	0.39939  	0.38695  	-3.02442  	0.06153  	-0.08565  	-127.36255  	-1.10670  	114.20379  	117.87679  	-19285.22282  	-11405.06631  	0.00462  	0.00003  	0.00420  	0.00438  	0.00582  	0.00000  	0.00000  
48.84833  	22.95151  	49.68202  	49.45980  	33.02405  	-1.18512  	0.01964  	0.39758  	0.38651  	-3.02442  	0.06192  	-0.08566  	-127.38040  	-1.10163  	114.07343  	117.34248  	-19285.11151  	-11405.49369  	0.00462  	0.00003  	0.00420  	0.00438  	0.00581  	0.00000  	0.00000  
49.85165  	22.95082  	49.68421  	49.46144  	33.02412  	-1.18512  	0.01919  	0.39669  	0.38269  	-3.02442  	0.06275  	-0.08572  	-127.39011  	-1.10435  	112.94800  	117.07898  	-19284.97973  	-11405.85008  	0.00461  	0.00003  	0.00420  	0.00437  	0.00580  	0.00000  	0.00000  
50.85297  	22.94940  	49.68618  	49.46284  	33.02640  	-1.18512  	0.02048  	0.39420  	0.38146  	-3.02442  	0.06283  	-0.08576  	-127.43686  	-1.10720  	112.58381  	116.34307  	-19285.16245  	-11406.16377  	0.00461  	0.00002  	0.00420  	0.00439  	0.00579  	0.00000  	0.00000  
51.85626  	22.94958  	49.68942  	49.46654  	33.02842  	-1.18512  	0.02037  	0.39338  	0.38062  	-3.02442  	0.06387  	-0.08571  	-127.46017  	-1.10491  	112.33611  	116.10088  	-19285.63507  	-11406.81183  	0.00461  	0.00003  	0.00420  	0.00439  	0.00579  	0.00000  	0.00000  
52.85957  	22.94923  	49.69229  	49.46962  	33.03189  	-1.18512  	0.01880  	0.39103  	0.37998  	-3.02442  	0.06035  	-0.08567  	-127.50851  	-1.10390  	112.14691  	115.40784  	-19286.30885  	-11407.36704  	0.00461  	0.00003  	0.00419  	0.00436  	0.00578  	0.00000  	0.00000  
53.86090  	22.94822  	49.69408  	49.47239  	33.03604  	-1.18512  	0.01907  	0.38947  	0.37611  	-3.02442  	0.06037  	-0.08568  	-127.57369  	-1.09903  	111.00439  	114.94849  	-19286.98574  	-11407.79245  	0.00460  	0.00003  	0.00419  	0.00437  	0.00577  	0.00000  	0.00000  
54.86421  	22.94633  	49.69617  	49.47392  	33.04127  	-1.18512  	0.01951  	0.38762  	0.37245  	-3.02442  	0.06257  	-0.08575  	-127.66373  	-1.10176  	109.92520  	114.40240  	-19287.70428  	-11408.12977  	0.00460  	0.00002  	0.00420  	0.00437  	0.00576  	0.00000  	0.00000  
55.86756  	22.94720  	49.69804  	49.47738  	33.04734  	-1.18512  	0.01956  	0.38478  	0.37311  	-3.02442  	0.06402  	-0.08565  	-127.72952  	-1.09389  	110.11990  	113.56272  	-19289.19994  	-11408.62708  	0.00460  	0.00003  	0.00420  	0.00438  	0.00575  	0.00000  	0.00000  
56.86888  	22.94631  	49.70154  	49.48004  	33.05450  	-1.18512  	0.01872  	0.38560  	0.37516  	-3.02442  	0.06239  	-0.08571  	-127.83132  	-1.09807  	110.72468  	113.80531  	-19290.55004  	-11409.20194  	0.00460  	0.00003  	0.00420  	0.00436  	0.00575  	0.00000  	0.00000  
57.87219  	22.94556  	49.70350  	49.48218  	33.06145  	-1.18512  	0.01955  	0.38867  	0.37375  	-3.02442  	0.06208  	-0.08564  	-127.92864  	-1.09719  	110.30851  	114.71141  	-19291.88216  	-11409.58374  	0.00460  	0.00003  	0.00420  	0.00438  	0.00577  	0.00000  	0.00000  
58.87451  	22.94514  	49.70591  	49.48533  	33.06836  	-1.18512  	0.01908  	0.39352  	0.38104  	-3.02442  	0.06293  	-0.08567  	-128.02149  	-1.09350  	112.45835  	116.14161  	-19293.28037  	-11410.10322  	0.00461  	0.00003  	0.00420  	0.00437  	0.00579  	0.00000  	0.00000  
59.87583  	22.94552  	49.70815  	49.48832  	33.07766  	-1.18512  	0.02011  	0.39555  	0.38211  	-3.02442  	0.06108  	-0.08575  	-128.13414  	-1.08979  	112.77598  	116.74354  	-19295.36568  	-11410.58966  	0.00461  	0.00002  	0.00420  	0.00439  	0.00580  	0.00000  	0.00000  
60.87915  	22.94743  	49.70983  	49.48950  	33.08429  	-1.18512  	0.01970  	0.39733  	0.38572  	-3.02442  	0.06153  	-0.08564  	-128.19385  	-1.09227  	113.84073  	117.26862  	-19297.20461  	-11410.85706  	0.00462  	0.00003  	0.00420  	0.00438  	0.00581  	0.00000  	0.00000  
61.88147  	22.94799  	49.71169  	49.49183  	33.09049  	-1.18512  	0.02032  	0.39974  	0.38691  	-3.02442  	0.06142  	-0.08564  	-128.26530  	-1.08995  	114.19231  	117.97757  	-19298.66002  	-11411.24760  	0.00462  	0.00003  	0.00420  	0.00439  	0.00582  	0.00000  	0.00000  
62.88279  	22.94953  	49.71349  	49.49407  	33.09383  	-1.18512  	0.01956  	0.40266  	0.39111  	-3.02442  	0.06105  	-0.08567  	-128.28802  	-1.08780  	115.43280  	118.84129  	-19299.71031  	-11411.62481  	0.00463  	0.00003  	0.00420  	0.00438  	0.00583  	0.00000  	0.00000  
63.88312  	22.95031  	49.71687  	49.49666  	33.09697  	-1.18512  	0.01908  	0.40402  	0.39027  	-3.02442  	0.06302  	-0.08570  	-128.31782  	-1.09165  	115.18332  	119.24157  	-19300.55267  	-11412.18214  	0.00462  	0.00003  	0.00420  	0.00437  	0.00584  	0.00000  	0.00000  
64.88543  	22.95275  	49.71929  	49.49821  	33.09758  	-1.18512  	0.01966  	0.40625  	0.39309  	-3.02442  	0.06187  	-0.08567  	-128.29460  	-1.09599  	116.01483  	119.89972  	-19301.21164  	-11412.55148  	0.00463  	0.00003  	0.00420  	0.00438  	0.00585  	0.00000  	0.00000  
65.88875  	22.95339  	49.72142  	49.50046  	33.09776  	-1.18512  	0.01944  	0.40680  	0.39487  	-3.02442  	0.06177  	-0.08570  	-128.28888  	-1.09541  	116.54240  	120.06298  	-19301.38972  	-11412.96071  	0.00463  	0.00003  	0.00420  	0.00437  	0.00585  	0.00000  	0.00000  
66.89007  	22.95409  	49.72330  	49.50312  	33.09749  	-1.18512  	0.02017  	0.40770  	0.39561  	-3.02442  	0.06453  	-0.08576  	-128.27652  	-1.09153  	116.75977  	120.32793  	-19301.48089  	-11413.38417  	0.00463  	0.00002  	0.00421  	0.00439  	0.00585  	0.00000  	0.00000  
67.89339  	22.95626  	49.72573  	49.50479  	33.09456  	-1.18512  	0.01898  	0.40848  	0.39871  	-3.02442  	0.06195  	-0.08572  	-128.21204  	-1.09529  	117.67628  	120.55903  	-19301.31583  	-11413.76694  	0.00464  	0.00003  	0.00420  	0.00436  	0.00586  	0.00000  	0.00000  
68.89667  	22.95762  	49.72792  	49.50683  	33.09141  	-1.18512  	0.01955  	0.40916  	0.40036  	-3.02442  	0.06265  	-0.08564  	-128.15498  	-1.09606  	118.16169  	120.75831  	-19300.93117  	-11414.16101  	0.00464  	0.00003  	0.00420  	0.00438  	0.00586  	0.00000  	0.00000  
69.89802  	22.95918  	49.73061  	49.50842  	33.08769  	-1.18512  	0.01966  	0.41055  	0.39674  	-3.02442  	0.06300  	-0.08573  	-128.08822  	-1.10149  	117.09231  	121.16963  	-19300.46663  	-11414.55976  	0.00463  	0.00003  	0.00420  	0.00438  	0.00587  	0.00000  	0.00000  
70.90131  	22.95986  	49.73250  	49.51080  	33.08387  	-1.18512  	0.02117  	0.41196  	0.39750  	-3.02442  	0.06384  	-0.08566  	-128.03146  	-1.09907  	117.31717  	121.58625  	-19299.78983  	-11414.95831  	0.00464  	0.00003  	0.00420  	0.00441  	0.00587  	0.00000  	0.00000  
71.90465  	22.96081  	49.73502  	49.51245  	33.07955  	-1.18512  	0.02166  	0.40895  	0.39794  	-3.02442  	0.06191  	-0.08565  	-127.96469  	-1.10335  	117.44742  	120.69816  	-19299.06362  	-11415.34815  	0.00464  	0.00003  	0.00420  	0.00442  	0.00586  	0.00000  	0.00000  
