10/22/2024 10:41:30Time	T_hot_in(C)	T_cold_in(C)	T_cold_out(C)	T_hot_out(C)	mdot_cold(kg/s)	ASFASIFUAS(kg/s)	Diferencial_cold(bar)	Diferencial_hot(bar)	mdot_hot(kg/s)	ABS_cold(bar)	ABS_hot(bar)	q_cold(kW)	q_hot(kW)	ASFASYFY	Tau_cold_haste	Re_hot	Re_cold	U_global	PSIG_cold(bar)	R_fouling	PSIG_hot(bar)	PSID_hot(bar)	m_dot_hot	PSID_cold(bar)	m_dot_cold
1.73935  	0.00000  	0.00000  	0.00000  	0.00000  	-1.18512  	-0.20833  	-0.86278  	-2.50000  	-3.02442  	-1.25000  	-0.08628  	-0.00000  	-0.00000  	-737.84722  	-254.63905  	-9234.48090  	-3618.55272  	0.00000  	0.00000  	0.00000  	0.00000  	0.00000  	0.00000  	0.00000  
2.74267  	12.75221  	49.88550  	49.58563  	29.74421  	-1.18512  	0.01302  	0.23392  	0.21760  	-3.02442  	0.06377  	-0.08565  	-214.88617  	-1.48663  	64.22087  	69.03874  	-16469.13356  	-11436.22028  	0.00435  	0.00003  	0.00420  	0.00425  	0.00505  	0.00000  	0.00000  
3.74399  	12.75307  	49.88552  	49.58692  	29.74095  	-1.18512  	0.01470  	0.23254  	0.21519  	-3.02442  	0.06257  	-0.08566  	-214.83396  	-1.48036  	63.51107  	68.63028  	-16468.65114  	-11436.34223  	0.00434  	0.00003  	0.00420  	0.00428  	0.00505  	0.00000  	0.00000  
4.74728  	12.75327  	49.88585  	49.58752  	29.73630  	-1.18512  	0.01411  	0.23329  	0.21783  	-3.02442  	0.06258  	-0.08564  	-214.77263  	-1.47903  	64.28911  	68.85167  	-16467.75130  	-11436.42896  	0.00435  	0.00003  	0.00420  	0.00427  	0.00505  	0.00000  	0.00000  
5.74763  	12.75282  	49.88561  	49.58895  	29.73361  	-1.18512  	0.01422  	0.23239  	0.21760  	-3.02442  	0.06178  	-0.08569  	-214.74426  	-1.47067  	64.22089  	68.58842  	-16467.11727  	-11436.54006  	0.00435  	0.00003  	0.00420  	0.00427  	0.00505  	0.00000  	0.00000  
6.74895  	12.75302  	49.88561  	49.58924  	29.73046  	-1.18512  	0.01356  	0.23316  	0.21473  	-3.02442  	0.06272  	-0.08563  	-214.70191  	-1.46924  	63.37437  	68.81494  	-16466.52460  	-11436.56728  	0.00434  	0.00003  	0.00420  	0.00426  	0.00505  	0.00000  	0.00000  
7.75224  	12.75408  	49.88580  	49.58976  	29.72751  	-1.18512  	0.01340  	0.23148  	0.21644  	-3.02442  	0.06243  	-0.08560  	-214.65115  	-1.46766  	63.87931  	68.32022  	-16466.14171  	-11436.63336  	0.00435  	0.00003  	0.00420  	0.00426  	0.00504  	0.00000  	0.00000  
8.75458  	12.75282  	49.88583  	49.59171  	29.72382  	-1.18512  	0.01332  	0.23114  	0.21253  	-3.02442  	0.06307  	-0.08574  	-214.62048  	-1.45810  	62.72456  	68.21944  	-16465.14338  	-11436.81801  	0.00434  	0.00002  	0.00420  	0.00426  	0.00504  	0.00000  	0.00000  
9.75490  	12.75296  	49.88672  	49.59175  	29.72127  	-1.18512  	0.01365  	0.23196  	0.21399  	-3.02442  	0.06220  	-0.08563  	-214.58641  	-1.46232  	63.15763  	68.46054  	-16464.65868  	-11436.90479  	0.00434  	0.00003  	0.00420  	0.00426  	0.00504  	0.00000  	0.00000  
10.75820  	12.75313  	49.88668  	49.59125  	29.71933  	-1.18512  	0.01425  	0.23071  	0.21720  	-3.02442  	0.06224  	-0.08567  	-214.55983  	-1.46463  	64.10312  	68.09098  	-16464.29966  	-11436.85493  	0.00435  	0.00003  	0.00420  	0.00427  	0.00504  	0.00000  	0.00000  
11.76154  	12.75255  	49.88754  	49.59164  	29.71812  	-1.18512  	0.01327  	0.23113  	0.21543  	-3.02442  	0.06308  	-0.08570  	-214.55180  	-1.46695  	63.58171  	68.21530  	-16463.93997  	-11436.97191  	0.00434  	0.00003  	0.00420  	0.00425  	0.00504  	0.00000  	0.00000  
12.76287  	12.75337  	49.88776  	49.59155  	29.71551  	-1.18512  	0.01432  	0.23154  	0.21412  	-3.02442  	0.06326  	-0.08567  	-214.50848  	-1.46850  	63.19627  	68.33639  	-16463.57929  	-11436.98351  	0.00434  	0.00003  	0.00420  	0.00427  	0.00504  	0.00000  	0.00000  
13.76618  	12.75326  	49.88646  	49.58973  	29.71392  	-1.18512  	0.01545  	0.23179  	0.21596  	-3.02442  	0.06320  	-0.08574  	-214.48971  	-1.47104  	63.73758  	68.41102  	-16463.23707  	-11436.69211  	0.00435  	0.00003  	0.00420  	0.00430  	0.00504  	0.00000  	0.00000  
14.76949  	12.75269  	49.88693  	49.58779  	29.71318  	-1.18512  	0.01324  	0.23151  	0.21784  	-3.02442  	0.06266  	-0.08572  	-214.48760  	-1.48299  	64.29274  	68.32794  	-16462.97156  	-11436.55553  	0.00435  	0.00003  	0.00420  	0.00425  	0.00504  	0.00000  	0.00000  
15.77079  	12.75242  	49.88621  	49.58676  	29.71280  	-1.18512  	0.01295  	0.23112  	0.21542  	-3.02442  	0.06186  	-0.08562  	-214.48617  	-1.48454  	63.58012  	68.21177  	-16462.84239  	-11436.39145  	0.00434  	0.00003  	0.00420  	0.00425  	0.00504  	0.00000  	0.00000  
16.77413  	12.75230  	49.88508  	49.58563  	29.71198  	-1.18512  	0.01433  	0.23163  	0.21221  	-3.02442  	0.06188  	-0.08566  	-214.47735  	-1.48452  	62.63213  	68.36361  	-16462.65265  	-11436.18052  	0.00434  	0.00003  	0.00420  	0.00428  	0.00504  	0.00000  	0.00000  
17.77745  	12.75313  	49.88434  	49.58517  	29.71129  	-1.18512  	0.01339  	0.22945  	0.21461  	-3.02442  	0.06184  	-0.08567  	-214.45811  	-1.48316  	63.33912  	67.71846  	-16462.67830  	-11436.06911  	0.00434  	0.00003  	0.00420  	0.00426  	0.00503  	0.00000  	0.00000  
18.77974  	12.75244  	49.88437  	49.58470  	29.71092  	-1.18512  	0.01445  	0.22977  	0.21497  	-3.02442  	0.06228  	-0.08572  	-214.46213  	-1.48563  	63.44580  	67.81529  	-16462.46502  	-11436.02803  	0.00434  	0.00003  	0.00420  	0.00428  	0.00503  	0.00000  	0.00000  
19.78106  	12.75270  	49.88309  	49.58531  	29.71114  	-1.18512  	0.01376  	0.22970  	0.21398  	-3.02442  	0.06272  	-0.08572  	-214.46178  	-1.47630  	63.15417  	67.79385  	-16462.56284  	-11435.96468  	0.00434  	0.00003  	0.00420  	0.00426  	0.00503  	0.00000  	0.00000  
20.78440  	12.75225  	49.88302  	49.58445  	29.71155  	-1.18512  	0.01374  	0.22861  	0.20920  	-3.02442  	0.06089  	-0.08566  	-214.47244  	-1.48017  	61.74233  	67.47140  	-16462.55443  	-11435.87889  	0.00433  	0.00003  	0.00419  	0.00426  	0.00503  	0.00000  	0.00000  
21.78772  	12.75290  	49.88233  	49.58424  	29.71183  	-1.18512  	0.01391  	0.22900  	0.21176  	-3.02442  	0.06310  	-0.08569  	-214.46781  	-1.47782  	62.49811  	67.58798  	-16462.74166  	-11435.79432  	0.00434  	0.00003  	0.00420  	0.00427  	0.00503  	0.00000  	0.00000  
22.78901  	12.75246  	49.88217  	49.58336  	29.71351  	-1.18512  	0.01281  	0.22865  	0.21274  	-3.02442  	0.06223  	-0.08570  	-214.49473  	-1.48135  	62.78832  	67.48333  	-16462.99237  	-11435.69735  	0.00434  	0.00003  	0.00420  	0.00425  	0.00503  	0.00000  	0.00000  
23.79236  	12.75223  	49.88296  	49.58449  	29.71599  	-1.18512  	0.01333  	0.22779  	0.21270  	-3.02442  	0.06232  	-0.08569  	-214.52898  	-1.47968  	62.77550  	67.22922  	-16463.44524  	-11435.87714  	0.00434  	0.00003  	0.00420  	0.00426  	0.00502  	0.00000  	0.00000  
24.79565  	12.75275  	49.88254  	49.58458  	29.71761  	-1.18512  	0.01339  	0.22744  	0.21273  	-3.02442  	0.06284  	-0.08572  	-214.54286  	-1.47718  	62.78516  	67.12677  	-16463.87885  	-11435.84559  	0.00434  	0.00003  	0.00420  	0.00426  	0.00502  	0.00000  	0.00000  
25.79697  	12.75375  	49.88270  	49.58508  	29.72057  	-1.18512  	0.01228  	0.22715  	0.20998  	-3.02442  	0.06297  	-0.08569  	-214.56765  	-1.47547  	61.97367  	67.03939  	-16464.67679  	-11435.90765  	0.00434  	0.00003  	0.00420  	0.00424  	0.00502  	0.00000  	0.00000  
26.80031  	12.75310  	49.88292  	49.58475  	29.72490  	-1.18512  	0.01422  	0.22651  	0.20921  	-3.02442  	0.06341  	-0.08567  	-214.63061  	-1.47820  	61.74515  	66.85324  	-16465.41821  	-11435.89633  	0.00433  	0.00003  	0.00420  	0.00427  	0.00502  	0.00000  	0.00000  
27.80363  	12.75270  	49.88259  	49.58615  	29.72842  	-1.18512  	0.01445  	0.22852  	0.21114  	-3.02442  	0.06181  	-0.08576  	-214.68013  	-1.46962  	62.31552  	67.44576  	-16466.04798  	-11435.99733  	0.00434  	0.00002  	0.00420  	0.00428  	0.00503  	0.00000  	0.00000  
28.80495  	12.75307  	49.88241  	49.58754  	29.73224  	-1.18512  	0.01470  	0.22978  	0.21319  	-3.02442  	0.06358  	-0.08564  	-214.72378  	-1.46183  	62.92086  	67.81619  	-16466.89242  	-11436.10932  	0.00434  	0.00003  	0.00420  	0.00428  	0.00503  	0.00000  	0.00000  
29.80724  	12.75368  	49.88241  	49.58797  	29.73536  	-1.18512  	0.01383  	0.23036  	0.21003  	-3.02442  	0.06267  	-0.08568  	-214.75555  	-1.45969  	61.98872  	67.98950  	-16467.64467  	-11436.14946  	0.00434  	0.00003  	0.00420  	0.00427  	0.00504  	0.00000  	0.00000  
30.81056  	12.75404  	49.88286  	49.58939  	29.73869  	-1.18512  	0.01340  	0.23047  	0.21038  	-3.02442  	0.06195  	-0.08563  	-214.79307  	-1.45489  	62.09258  	68.02152  	-16468.38964  	-11436.32407  	0.00434  	0.00003  	0.00420  	0.00426  	0.00504  	0.00000  	0.00000  
31.81188  	12.75388  	49.88424  	49.59090  	29.74191  	-1.18512  	0.01476  	0.23109  	0.21531  	-3.02442  	0.06224  	-0.08566  	-214.83595  	-1.45426  	63.54613  	68.20364  	-16469.00594  	-11436.59406  	0.00434  	0.00003  	0.00420  	0.00428  	0.00504  	0.00000  	0.00000  
32.81519  	12.75527  	49.88365  	49.59162  	29.74360  	-1.18512  	0.01441  	0.23112  	0.21485  	-3.02442  	0.06193  	-0.08562  	-214.83966  	-1.44775  	63.41008  	68.21270  	-16469.62685  	-11436.60560  	0.00434  	0.00003  	0.00420  	0.00428  	0.00504  	0.00000  	0.00000  
33.81754  	12.75449  	49.88441  	49.59124  	29.74380  	-1.18512  	0.01441  	0.23198  	0.21543  	-3.02442  	0.06198  	-0.08570  	-214.85206  	-1.45341  	63.58113  	68.46630  	-16469.51133  	-11436.64240  	0.00434  	0.00003  	0.00420  	0.00428  	0.00504  	0.00000  	0.00000  
34.81883  	12.75491  	49.88444  	49.59040  	29.74401  	-1.18512  	0.01457  	0.23199  	0.21461  	-3.02442  	0.06311  	-0.08577  	-214.84938  	-1.45771  	63.33906  	68.46875  	-16469.63894  	-11436.56540  	0.00434  	0.00002  	0.00420  	0.00428  	0.00504  	0.00000  	0.00000  
35.82215  	12.75518  	49.88423  	49.59052  	29.74394  	-1.18512  	0.01426  	0.23202  	0.21530  	-3.02442  	0.06073  	-0.08573  	-214.84510  	-1.45609  	63.54209  	68.47757  	-16469.67783  	-11436.55831  	0.00434  	0.00003  	0.00419  	0.00427  	0.00504  	0.00000  	0.00000  
36.82546  	12.75589  	49.88448  	49.59033  	29.74219  	-1.18512  	0.01378  	0.23309  	0.21805  	-3.02442  	0.06156  	-0.08568  	-214.81395  	-1.45828  	64.35623  	68.79539  	-16469.46731  	-11436.56339  	0.00435  	0.00003  	0.00420  	0.00426  	0.00505  	0.00000  	0.00000  
37.82682  	12.75608  	49.88494  	49.59119  	29.74003  	-1.18512  	0.01507  	0.23257  	0.21363  	-3.02442  	0.06289  	-0.08572  	-214.78435  	-1.45629  	63.05004  	68.64061  	-16469.07029  	-11436.68656  	0.00434  	0.00003  	0.00420  	0.00429  	0.00505  	0.00000  	0.00000  
38.82911  	12.75573  	49.88519  	49.59090  	29.73803  	-1.18512  	0.01348  	0.23299  	0.21699  	-3.02442  	0.06306  	-0.08564  	-214.76342  	-1.45897  	64.04318  	68.76336  	-16468.59606  	-11436.68288  	0.00435  	0.00003  	0.00420  	0.00426  	0.00505  	0.00000  	0.00000  
39.83146  	12.75490  	49.88420  	49.59067  	29.73388  	-1.18512  	0.01359  	0.23250  	0.21565  	-3.02442  	0.06264  	-0.08569  	-214.72140  	-1.45519  	63.64621  	68.61924  	-16467.59305  	-11436.56840  	0.00435  	0.00003  	0.00420  	0.00426  	0.00505  	0.00000  	0.00000  
40.83474  	12.75522  	49.88437  	49.58907  	29.73061  	-1.18512  	0.01418  	0.23275  	0.21550  	-3.02442  	0.06199  	-0.08569  	-214.67599  	-1.46401  	63.60155  	68.69242  	-16466.99827  	-11436.43536  	0.00434  	0.00003  	0.00420  	0.00427  	0.00505  	0.00000  	0.00000  
41.83506  	12.75525  	49.88475  	49.58809  	29.72758  	-1.18512  	0.01386  	0.23260  	0.21387  	-3.02442  	0.06306  	-0.08573  	-214.63732  	-1.47068  	63.11996  	68.64972  	-16466.39308  	-11436.37922  	0.00434  	0.00003  	0.00420  	0.00427  	0.00505  	0.00000  	0.00000  
42.83841  	12.75454  	49.88477  	49.58667  	29.72508  	-1.18512  	0.01427  	0.23221  	0.21303  	-3.02442  	0.06340  	-0.08570  	-214.61475  	-1.47785  	62.87303  	68.53555  	-16465.74487  	-11436.24823  	0.00434  	0.00003  	0.00420  	0.00427  	0.00505  	0.00000  	0.00000  
43.84172  	12.75440  	49.88374  	49.58674  	29.72213  	-1.18512  	0.01407  	0.23213  	0.21637  	-3.02442  	0.06250  	-0.08572  	-214.57922  	-1.47238  	63.86044  	68.51054  	-16465.12257  	-11436.15955  	0.00435  	0.00003  	0.00420  	0.00427  	0.00504  	0.00000  	0.00000  
44.84302  	12.75455  	49.88296  	49.58442  	29.72031  	-1.18512  	0.01409  	0.23110  	0.21139  	-3.02442  	0.06181  	-0.08566  	-214.55426  	-1.48000  	62.38936  	68.20704  	-16464.78361  	-11435.86982  	0.00434  	0.00003  	0.00420  	0.00427  	0.00504  	0.00000  	0.00000  
45.84636  	12.75426  	49.88274  	49.58384  	29.71882  	-1.18512  	0.01352  	0.23172  	0.21630  	-3.02442  	0.06248  	-0.08575  	-214.53904  	-1.48179  	63.83848  	68.39082  	-16464.42730  	-11435.79490  	0.00435  	0.00002  	0.00420  	0.00426  	0.00504  	0.00000  	0.00000  
46.84965  	12.75349  	49.88263  	49.58247  	29.71563  	-1.18512  	0.01402  	0.23127  	0.21302  	-3.02442  	0.06271  	-0.08569  	-214.50836  	-1.48809  	62.87016  	68.25652  	-16463.62726  	-11435.65732  	0.00434  	0.00003  	0.00420  	0.00427  	0.00504  	0.00000  	0.00000  
47.85097  	12.75316  	49.88309  	49.58173  	29.71393  	-1.18512  	0.01325  	0.23189  	0.21685  	-3.02442  	0.06174  	-0.08565  	-214.49103  	-1.49399  	64.00069  	68.43991  	-16463.21814  	-11435.63126  	0.00435  	0.00003  	0.00420  	0.00425  	0.00504  	0.00000  	0.00000  
48.85429  	12.75410  	49.88372  	49.58375  	29.71267  	-1.18512  	0.01342  	0.23124  	0.21532  	-3.02442  	0.06266  	-0.08569  	-214.46333  	-1.48713  	63.54943  	68.24655  	-16463.15431  	-11435.87815  	0.00434  	0.00003  	0.00420  	0.00426  	0.00504  	0.00000  	0.00000  
49.85760  	12.75420  	49.88384  	49.58519  	29.71172  	-1.18512  	0.01421  	0.23099  	0.21426  	-3.02442  	0.06178  	-0.08568  	-214.45011  	-1.48059  	63.23641  	68.17317  	-16462.98213  	-11436.02411  	0.00434  	0.00003  	0.00420  	0.00427  	0.00504  	0.00000  	0.00000  
50.85892  	12.75372  	49.88353  	49.58628  	29.71135  	-1.18512  	0.01311  	0.23093  	0.21405  	-3.02442  	0.06253  	-0.08569  	-214.45144  	-1.47359  	63.17440  	68.15641  	-16462.81161  	-11436.09654  	0.00434  	0.00003  	0.00420  	0.00425  	0.00504  	0.00000  	0.00000  
51.86224  	12.75428  	49.88429  	49.58721  	29.70963  	-1.18512  	0.01518  	0.23066  	0.21235  	-3.02442  	0.06195  	-0.08565  	-214.42260  	-1.47280  	62.67176  	68.07668  	-16462.57619  	-11436.25367  	0.00434  	0.00003  	0.00420  	0.00429  	0.00504  	0.00000  	0.00000  
52.86558  	12.75404  	49.88386  	49.58654  	29.70959  	-1.18512  	0.01360  	0.23090  	0.21640  	-3.02442  	0.06173  	-0.08562  	-214.42509  	-1.47399  	63.86863  	68.14701  	-16462.52147  	-11436.15139  	0.00435  	0.00003  	0.00420  	0.00426  	0.00504  	0.00000  	0.00000  
53.86691  	12.75369  	49.88423  	49.58652  	29.70968  	-1.18512  	0.01366  	0.23050  	0.21636  	-3.02442  	0.06411  	-0.08571  	-214.43076  	-1.47589  	63.85546  	68.02830  	-16462.46737  	-11436.18431  	0.00435  	0.00003  	0.00421  	0.00426  	0.00504  	0.00000  	0.00000  
54.87019  	12.75464  	49.88369  	49.58598  	29.70890  	-1.18512  	0.01350  	0.22909  	0.21268  	-3.02442  	0.06233  	-0.08568  	-214.40882  	-1.47589  	62.76931  	67.61336  	-16462.50102  	-11436.08377  	0.00434  	0.00003  	0.00420  	0.00426  	0.00503  	0.00000  	0.00000  
55.87254  	12.75420  	49.88444  	49.58601  	29.70925  	-1.18512  	0.01401  	0.22994  	0.21209  	-3.02442  	0.06134  	-0.08567  	-214.41870  	-1.47951  	62.59495  	67.86422  	-16462.48465  	-11436.15653  	0.00434  	0.00003  	0.00420  	0.00427  	0.00503  	0.00000  	0.00000  
56.87387  	12.75396  	49.88438  	49.58459  	29.70992  	-1.18512  	0.01385  	0.23000  	0.21145  	-3.02442  	0.06244  	-0.08569  	-214.43031  	-1.48625  	62.40782  	67.88055  	-16462.56935  	-11436.01797  	0.00434  	0.00003  	0.00420  	0.00427  	0.00503  	0.00000  	0.00000  
57.87715  	12.75358  	49.88366  	49.58328  	29.71131  	-1.18512  	0.01426  	0.22904  	0.21130  	-3.02442  	0.06473  	-0.08569  	-214.45267  	-1.48912  	62.36183  	67.59905  	-16462.77609  	-11435.82889  	0.00434  	0.00003  	0.00421  	0.00427  	0.00503  	0.00000  	0.00000  
58.88047  	12.75395  	49.88333  	49.58285  	29.71242  	-1.18512  	0.01384  	0.22885  	0.20996  	-3.02442  	0.06402  	-0.08567  	-214.46203  	-1.48969  	61.96723  	67.54271  	-16463.07285  	-11435.75764  	0.00434  	0.00003  	0.00420  	0.00427  	0.00503  	0.00000  	0.00000  
59.88179  	12.75319  	49.88278  	49.58148  	29.71442  	-1.18512  	0.01545  	0.22782  	0.20607  	-3.02442  	0.06110  	-0.08568  	-214.49701  	-1.49369  	60.82061  	67.23707  	-16463.32299  	-11435.57866  	0.00433  	0.00003  	0.00420  	0.00430  	0.00502  	0.00000  	0.00000  
60.88514  	12.75367  	49.88185  	49.58080  	29.71511  	-1.18512  	0.01361  	0.22768  	0.21168  	-3.02442  	0.06175  	-0.08574  	-214.49952  	-1.49247  	62.47623  	67.19715  	-16463.55922  	-11435.42833  	0.00434  	0.00003  	0.00420  	0.00426  	0.00502  	0.00000  	0.00000  
61.88745  	12.75368  	49.88269  	49.58024  	29.71714  	-1.18512  	0.01466  	0.22668  	0.21135  	-3.02442  	0.06202  	-0.08569  	-214.52508  	-1.49942  	62.37889  	66.90105  	-16463.96973  	-11435.45481  	0.00434  	0.00003  	0.00420  	0.00428  	0.00502  	0.00000  	0.00000  
62.88877  	12.75356  	49.88180  	49.58017  	29.71971  	-1.18512  	0.01500  	0.22710  	0.20747  	-3.02442  	0.06196  	-0.08570  	-214.55911  	-1.49532  	61.23352  	67.02483  	-16464.46468  	-11435.36440  	0.00433  	0.00003  	0.00420  	0.00429  	0.00502  	0.00000  	0.00000  
63.89007  	12.75464  	49.87995  	49.57898  	29.72423  	-1.18512  	0.01518  	0.22638  	0.20785  	-3.02442  	0.06235  	-0.08568  	-214.60273  	-1.49204  	61.34377  	66.81287  	-16465.59461  	-11435.08100  	0.00433  	0.00003  	0.00420  	0.00429  	0.00502  	0.00000  	0.00000  
64.89341  	12.75368  	49.87866  	49.57966  	29.72714  	-1.18512  	0.01340  	0.22751  	0.21250  	-3.02442  	0.06079  	-0.08561  	-214.65151  	-1.48229  	62.71615  	67.14744  	-16465.98690  	-11435.02344  	0.00434  	0.00003  	0.00419  	0.00426  	0.00502  	0.00000  	0.00000  
65.89673  	12.75395  	49.87924  	49.57937  	29.73000  	-1.18512  	0.01288  	0.22911  	0.21292  	-3.02442  	0.06307  	-0.08566  	-214.68432  	-1.48662  	62.84064  	67.61869  	-16466.61739  	-11435.05085  	0.00434  	0.00003  	0.00420  	0.00425  	0.00503  	0.00000  	0.00000  
66.89802  	12.75477  	49.87904  	49.57965  	29.73389  	-1.18512  	0.01366  	0.22995  	0.21410  	-3.02442  	0.06172  	-0.08572  	-214.72319  	-1.48422  	63.19022  	67.86610  	-16467.56720  	-11435.05881  	0.00434  	0.00003  	0.00420  	0.00426  	0.00503  	0.00000  	0.00000  
67.90134  	12.75542  	49.87981  	49.58070  	29.73780  	-1.18512  	0.01468  	0.23022  	0.21587  	-3.02442  	0.06350  	-0.08568  	-214.76441  	-1.48289  	63.71072  	67.94548  	-16468.48677  	-11435.22847  	0.00435  	0.00003  	0.00420  	0.00428  	0.00504  	0.00000  	0.00000  
68.90468  	12.75578  	49.87872  	49.58119  	29.73992  	-1.18512  	0.01352  	0.23114  	0.21301  	-3.02442  	0.06362  	-0.08568  	-214.78669  	-1.47498  	62.86832  	68.21754  	-16468.98901  	-11435.17248  	0.00434  	0.00003  	0.00420  	0.00426  	0.00504  	0.00000  	0.00000  
69.90600  	12.75538  	49.87883  	49.58283  	29.74142  	-1.18512  	0.01392  	0.23047  	0.21221  	-3.02442  	0.06238  	-0.08570  	-214.81073  	-1.46744  	62.63180  	68.02175  	-16469.21119  	-11435.33512  	0.00434  	0.00003  	0.00420  	0.00427  	0.00504  	0.00000  	0.00000  
70.90932  	12.75610  	49.87900  	49.58379  	29.74248  	-1.18512  	0.01402  	0.23181  	0.21709  	-3.02442  	0.06434  	-0.08569  	-214.81493  	-1.46353  	64.07163  	68.41573  	-16469.56867  	-11435.44135  	0.00435  	0.00003  	0.00421  	0.00427  	0.00504  	0.00000  	0.00000  
71.91261  	12.75593  	49.87907  	49.58495  	29.74343  	-1.18512  	0.01328  	0.23153  	0.21642  	-3.02442  	0.06224  	-0.08571  	-214.82924  	-1.45812  	63.87297  	68.33298  	-16469.72631  	-11435.55669  	0.00435  	0.00003  	0.00420  	0.00426  	0.00504  	0.00000  	0.00000  
