11/04/2024 09:50:33Time	T_hot_in(C)	T_cold_in(C)	T_cold_out(C)	T_hot_out(C)	mdot_cold(kg/s)	ASFASIFUAS(kg/s)	Diferencial_cold(bar)	Diferencial_hot(bar)	mdot_hot(kg/s)	ABS_cold(bar)	ABS_hot(bar)	q_cold(kW)	q_hot(kW)	ASFASYFY	Tau_cold_haste	Re_hot	Re_cold	U_global	PSIG_cold(bar)	R_fouling	PSIG_hot(bar)	PSID_hot(bar)	m_dot_hot	PSID_cold(bar)	m_dot_cold
1.75973  	0.00000  	0.00000  	0.00000  	0.00000  	-1.18512  	-0.20833  	-0.86278  	-2.50000  	-3.02442  	-1.25000  	-0.08628  	-0.00000  	-0.00000  	-737.84722  	-254.63905  	-9234.48090  	-3618.55272  	0.00000  	0.00000  	0.00000  	0.00000  	0.00000  	0.00000  	0.00000  
2.76024  	33.30387  	4.86677  	5.08077  	27.81711  	-1.18512  	0.02616  	0.16896  	0.16394  	-3.02442  	0.00771  	-0.08574  	-69.58612  	-1.06085  	48.38524  	49.86570  	-20403.21370  	-4178.65687  	0.00426  	0.00003  	0.00402  	0.00450  	0.00475  	0.00000  	0.00000  
3.76031  	33.30370  	4.86630  	5.08065  	27.81556  	-1.18512  	0.02548  	0.16748  	0.16875  	-3.02442  	0.00542  	-0.08576  	-69.60354  	-1.06262  	49.80324  	49.42894  	-20402.83712  	-4178.62156  	0.00427  	0.00002  	0.00402  	0.00449  	0.00475  	0.00000  	0.00000  
4.76016  	33.30425  	4.86698  	5.08026  	27.81147  	-1.18512  	0.02463  	0.16689  	0.16541  	-3.02442  	0.00707  	-0.08573  	-69.66232  	-1.05729  	48.81914  	49.25582  	-20402.06099  	-4178.63936  	0.00426  	0.00003  	0.00402  	0.00447  	0.00474  	0.00000  	0.00000  
5.76052  	33.30378  	4.86635  	5.08019  	27.80616  	-1.18512  	0.02398  	0.16541  	0.16749  	-3.02442  	0.00825  	-0.08579  	-69.72375  	-1.06009  	49.43278  	48.82018  	-20400.79405  	-4178.59737  	0.00427  	0.00002  	0.00403  	0.00446  	0.00474  	0.00000  	0.00000  
6.76002  	33.30362  	4.86713  	5.07996  	27.80118  	-1.18512  	0.02525  	0.16602  	0.16182  	-3.02442  	0.00705  	-0.08578  	-69.78485  	-1.05507  	47.76065  	49.00022  	-20399.66805  	-4178.62978  	0.00426  	0.00002  	0.00402  	0.00448  	0.00474  	0.00000  	0.00000  
7.76039  	33.30448  	4.86731  	5.08048  	27.79588  	-1.18512  	0.02414  	0.16554  	0.16900  	-3.02442  	0.00657  	-0.08566  	-69.86307  	-1.05676  	49.87827  	48.85873  	-20398.69448  	-4178.67239  	0.00427  	0.00003  	0.00402  	0.00446  	0.00474  	0.00000  	0.00000  
8.76056  	33.30488  	4.86666  	5.07893  	27.78841  	-1.18512  	0.02628  	0.16743  	0.16920  	-3.02442  	0.00854  	-0.08587  	-69.96285  	-1.05232  	49.93775  	49.41639  	-20397.14400  	-4178.54083  	0.00427  	0.00002  	0.00403  	0.00450  	0.00475  	0.00000  	0.00000  
9.76045  	33.30503  	4.86649  	5.07900  	27.78299  	-1.18512  	0.02485  	0.17034  	0.17717  	-3.02442  	0.00688  	-0.08583  	-70.03361  	-1.05351  	52.28847  	50.27371  	-20395.98967  	-4178.53493  	0.00428  	0.00002  	0.00402  	0.00448  	0.00476  	0.00000  	0.00000  
10.76141  	33.30556  	4.86566  	5.07919  	27.77847  	-1.18512  	0.02661  	0.17140  	0.17353  	-3.02442  	0.00681  	-0.08577  	-70.09764  	-1.05855  	51.21664  	50.58707  	-20395.11522  	-4178.49611  	0.00428  	0.00002  	0.00402  	0.00451  	0.00476  	0.00000  	0.00000  
11.76097  	33.30546  	4.86547  	5.07839  	27.77474  	-1.18512  	0.02610  	0.17028  	0.17246  	-3.02442  	0.00664  	-0.08566  	-70.14353  	-1.05552  	50.89971  	50.25714  	-20394.27619  	-4178.43791  	0.00428  	0.00003  	0.00402  	0.00450  	0.00476  	0.00000  	0.00000  
12.76168  	33.30527  	4.86642  	5.07903  	27.77141  	-1.18512  	0.02628  	0.17288  	0.17043  	-3.02442  	0.00659  	-0.08578  	-70.18344  	-1.05399  	50.29917  	51.02478  	-20393.50282  	-4178.53221  	0.00427  	0.00002  	0.00402  	0.00450  	0.00477  	0.00000  	0.00000  
13.76189  	33.30586  	4.86600  	5.07809  	27.76940  	-1.18512  	0.02661  	0.17195  	0.17520  	-3.02442  	0.00733  	-0.08579  	-70.21640  	-1.05141  	51.70775  	50.74961  	-20393.19505  	-4178.45091  	0.00428  	0.00002  	0.00402  	0.00451  	0.00477  	0.00000  	0.00000  
14.76244  	33.30593  	4.86565  	5.07827  	27.76866  	-1.18512  	0.02535  	0.17477  	0.18229  	-3.02442  	0.00464  	-0.08586  	-70.22663  	-1.05401  	53.80211  	51.58150  	-20393.04609  	-4178.44143  	0.00429  	0.00002  	0.00401  	0.00449  	0.00478  	0.00000  	0.00000  
15.76257  	33.30602  	4.86571  	5.07927  	27.76831  	-1.18512  	0.02687  	0.17572  	0.17534  	-3.02442  	0.00887  	-0.08582  	-70.23219  	-1.05867  	51.74938  	51.86043  	-20392.98952  	-4178.50394  	0.00428  	0.00002  	0.00403  	0.00452  	0.00478  	0.00000  	0.00000  
16.76303  	33.30631  	4.86655  	5.07946  	27.76917  	-1.18512  	0.02512  	0.17361  	0.18093  	-3.02442  	0.01086  	-0.08566  	-70.22491  	-1.05546  	53.39982  	51.23992  	-20393.24095  	-4178.56525  	0.00429  	0.00003  	0.00403  	0.00448  	0.00478  	0.00000  	0.00000  
17.76361  	33.30650  	4.86606  	5.07899  	27.77060  	-1.18512  	0.02565  	0.17591  	0.17939  	-3.02442  	0.01011  	-0.08581  	-70.20936  	-1.05558  	52.94630  	51.91714  	-20393.59610  	-4178.50880  	0.00429  	0.00002  	0.00403  	0.00449  	0.00479  	0.00000  	0.00000  
18.76530  	33.30624  	4.86636  	5.07954  	27.77250  	-1.18512  	0.02564  	0.17691  	0.17682  	-3.02442  	0.00339  	-0.08574  	-70.18176  	-1.05682  	52.18778  	52.21359  	-20393.95573  	-4178.55953  	0.00428  	0.00003  	0.00401  	0.00449  	0.00479  	0.00000  	0.00000  
19.76635  	33.30518  	4.86621  	5.07969  	27.77624  	-1.18512  	0.02744  	0.17583  	0.17680  	-3.02442  	0.00989  	-0.08560  	-70.12096  	-1.05826  	52.17970  	51.89368  	-20394.54305  	-4178.55924  	0.00428  	0.00003  	0.00403  	0.00453  	0.00479  	0.00000  	0.00000  
20.76654  	33.30596  	4.86556  	5.07950  	27.77900  	-1.18512  	0.02701  	0.17889  	0.18365  	-3.02442  	0.00466  	-0.08580  	-70.09592  	-1.06059  	54.20357  	52.79629  	-20395.31764  	-4178.50930  	0.00429  	0.00002  	0.00401  	0.00452  	0.00480  	0.00000  	0.00000  
21.76629  	33.30633  	4.86615  	5.07961  	27.78326  	-1.18512  	0.02537  	0.17636  	0.18694  	-3.02442  	0.00652  	-0.08572  	-70.04648  	-1.05817  	55.17294  	52.04978  	-20396.33404  	-4178.55063  	0.00430  	0.00003  	0.00402  	0.00449  	0.00479  	0.00000  	0.00000  
22.76631  	33.30629  	4.86591  	5.07975  	27.78671  	-1.18512  	0.02853  	0.17963  	0.17623  	-3.02442  	0.00655  	-0.08580  	-70.00224  	-1.06009  	52.01142  	53.01485  	-20397.08032  	-4178.54446  	0.00428  	0.00002  	0.00402  	0.00455  	0.00480  	0.00000  	0.00000  
23.76651  	33.30625  	4.86624  	5.07939  	27.79101  	-1.18512  	0.02751  	0.18093  	0.17707  	-3.02442  	0.00836  	-0.08561  	-69.94727  	-1.05667  	52.26154  	53.39807  	-20398.01656  	-4178.54329  	0.00428  	0.00003  	0.00403  	0.00453  	0.00481  	0.00000  	0.00000  
24.76656  	33.30550  	4.86463  	5.08008  	27.79664  	-1.18512  	0.02603  	0.18058  	0.18307  	-3.02442  	0.00520  	-0.08577  	-69.86626  	-1.06805  	54.03249  	53.29531  	-20399.08431  	-4178.48850  	0.00429  	0.00002  	0.00402  	0.00450  	0.00481  	0.00000  	0.00000  
25.76651  	33.30558  	4.86471  	5.07884  	27.79939  	-1.18512  	0.02424  	0.17862  	0.18661  	-3.02442  	0.00878  	-0.08577  	-69.83244  	-1.06156  	55.07447  	52.71652  	-20399.70484  	-4178.41887  	0.00430  	0.00002  	0.00403  	0.00447  	0.00480  	0.00000  	0.00000  
26.76609  	33.30531  	4.86489  	5.07909  	27.80358  	-1.18512  	0.02685  	0.17824  	0.18108  	-3.02442  	0.00671  	-0.08580  	-69.77599  	-1.06186  	53.44259  	52.60473  	-20400.56337  	-4178.44434  	0.00429  	0.00002  	0.00402  	0.00452  	0.00480  	0.00000  	0.00000  
27.76649  	33.30598  	4.86463  	5.07980  	27.80733  	-1.18512  	0.02655  	0.17785  	0.18214  	-3.02442  	0.00732  	-0.08579  	-69.73680  	-1.06666  	53.75608  	52.48985  	-20401.53291  	-4178.47156  	0.00429  	0.00002  	0.00402  	0.00451  	0.00479  	0.00000  	0.00000  
28.76630  	33.30512  	4.86398  	5.07854  	27.81217  	-1.18512  	0.02572  	0.17720  	0.18717  	-3.02442  	0.00493  	-0.08580  	-69.66459  	-1.06362  	55.24049  	52.29855  	-20402.40396  	-4178.35740  	0.00430  	0.00002  	0.00402  	0.00449  	0.00479  	0.00000  	0.00000  
29.76629  	33.30499  	4.86416  	5.07829  	27.81565  	-1.18512  	0.02618  	0.17701  	0.17878  	-3.02442  	0.00645  	-0.08569  	-69.61881  	-1.06156  	52.76432  	52.24338  	-20403.14015  	-4178.35336  	0.00429  	0.00003  	0.00402  	0.00450  	0.00479  	0.00000  	0.00000  
30.76627  	33.30454  	4.86366  	5.07797  	27.81680  	-1.18512  	0.02741  	0.17458  	0.17565  	-3.02442  	0.00494  	-0.08581  	-69.59859  	-1.06236  	51.84214  	51.52590  	-20403.29265  	-4178.30446  	0.00428  	0.00002  	0.00402  	0.00453  	0.00478  	0.00000  	0.00000  
31.76647  	33.30445  	4.86339  	5.07755  	27.81881  	-1.18512  	0.02582  	0.17353  	0.17246  	-3.02442  	0.00789  	-0.08570  	-69.57191  	-1.06165  	50.90047  	51.21548  	-20403.71373  	-4178.26337  	0.00428  	0.00003  	0.00403  	0.00450  	0.00477  	0.00000  	0.00000  
32.76630  	33.30512  	4.86362  	5.07737  	27.81905  	-1.18512  	0.02351  	0.17040  	0.17679  	-3.02442  	0.00750  	-0.08566  	-69.57740  	-1.05963  	52.17774  	50.29026  	-20403.91471  	-4178.26584  	0.00428  	0.00003  	0.00402  	0.00445  	0.00476  	0.00000  	0.00000  
33.76627  	33.30362  	4.86375  	5.07754  	27.81856  	-1.18512  	0.02390  	0.17019  	0.17685  	-3.02442  	0.00781  	-0.08575  	-69.56447  	-1.05985  	52.19671  	50.22870  	-20403.47615  	-4178.28399  	0.00428  	0.00002  	0.00403  	0.00446  	0.00476  	0.00000  	0.00000  
34.76639  	33.30362  	4.86275  	5.07766  	27.81679  	-1.18512  	0.02639  	0.16950  	0.17579  	-3.02442  	0.00652  	-0.08567  	-69.58695  	-1.06539  	51.88216  	50.02643  	-20403.08957  	-4178.23171  	0.00428  	0.00003  	0.00402  	0.00451  	0.00476  	0.00000  	0.00000  
35.76630  	33.30353  	4.86383  	5.07693  	27.81465  	-1.18512  	0.02422  	0.16966  	0.16850  	-3.02442  	0.00619  	-0.08567  	-69.61304  	-1.05639  	49.73028  	50.07249  	-20402.60075  	-4178.25254  	0.00427  	0.00003  	0.00402  	0.00446  	0.00476  	0.00000  	0.00000  
36.76629  	33.30247  	4.86405  	5.07693  	27.81160  	-1.18512  	0.02440  	0.16607  	0.16696  	-3.02442  	0.00538  	-0.08563  	-69.63830  	-1.05529  	49.27550  	49.01492  	-20401.69795  	-4178.26562  	0.00427  	0.00003  	0.00402  	0.00447  	0.00474  	0.00000  	0.00000  
37.76636  	33.30290  	4.86350  	5.07632  	27.80791  	-1.18512  	0.02386  	0.16505  	0.16722  	-3.02442  	0.00969  	-0.08569  	-69.69045  	-1.05500  	49.35238  	48.71131  	-20400.98460  	-4178.19659  	0.00427  	0.00003  	0.00403  	0.00446  	0.00474  	0.00000  	0.00000  
38.76629  	33.30228  	4.86367  	5.07664  	27.80213  	-1.18512  	0.02517  	0.16430  	0.16078  	-3.02442  	0.00713  	-0.08561  	-69.75603  	-1.05579  	47.45219  	48.48986  	-20399.58140  	-4178.22578  	0.00426  	0.00003  	0.00402  	0.00448  	0.00473  	0.00000  	0.00000  
39.76778  	33.30179  	4.86355  	5.07721  	27.79527  	-1.18512  	0.02547  	0.16568  	0.16710  	-3.02442  	0.00731  	-0.08576  	-69.83671  	-1.05922  	49.31683  	48.89728  	-20397.97103  	-4178.25244  	0.00427  	0.00002  	0.00402  	0.00449  	0.00474  	0.00000  	0.00000  
40.76776  	33.30133  	4.86419  	5.07587  	27.78978  	-1.18512  	0.02371  	0.16775  	0.16829  	-3.02442  	0.00740  	-0.08572  	-69.90057  	-1.04934  	49.66890  	49.50987  	-20396.66824  	-4178.21096  	0.00427  	0.00003  	0.00402  	0.00446  	0.00475  	0.00000  	0.00000  
41.76821  	33.30081  	4.86370  	5.07556  	27.78299  	-1.18512  	0.02499  	0.16780  	0.17194  	-3.02442  	0.00587  	-0.08573  	-69.98004  	-1.05029  	50.74559  	49.52401  	-20395.06470  	-4178.16330  	0.00428  	0.00003  	0.00402  	0.00448  	0.00475  	0.00000  	0.00000  
42.76855  	33.30146  	4.86412  	5.07562  	27.77680  	-1.18512  	0.02392  	0.16815  	0.17013  	-3.02442  	0.00451  	-0.08577  	-70.06682  	-1.04847  	50.21155  	49.62849  	-20393.85006  	-4178.19231  	0.00427  	0.00002  	0.00401  	0.00446  	0.00475  	0.00000  	0.00000  
43.76857  	33.30178  	4.86390  	5.07558  	27.77316  	-1.18512  	0.02678  	0.16978  	0.16618  	-3.02442  	0.00889  	-0.08570  	-70.11706  	-1.04940  	49.04600  	50.10793  	-20393.12456  	-4178.17647  	0.00427  	0.00003  	0.00403  	0.00451  	0.00476  	0.00000  	0.00000  
44.76847  	33.30011  	4.86355  	5.07540  	27.76924  	-1.18512  	0.02842  	0.17238  	0.17044  	-3.02442  	0.00717  	-0.08579  	-70.14557  	-1.05018  	50.30371  	50.87493  	-20391.89681  	-4178.14449  	0.00427  	0.00002  	0.00402  	0.00455  	0.00477  	0.00000  	0.00000  
45.76925  	33.30033  	4.86289  	5.07472  	27.76681  	-1.18512  	0.02566  	0.16936  	0.17546  	-3.02442  	0.00819  	-0.08582  	-70.17929  	-1.05011  	51.78390  	49.98442  	-20391.41301  	-4178.06480  	0.00428  	0.00002  	0.00403  	0.00449  	0.00476  	0.00000  	0.00000  
46.76993  	33.30074  	4.86265  	5.07527  	27.76507  	-1.18512  	0.02515  	0.17156  	0.16984  	-3.02442  	0.00905  	-0.08570  	-70.20654  	-1.05404  	50.12529  	50.63470  	-20391.12309  	-4178.08313  	0.00427  	0.00003  	0.00403  	0.00448  	0.00477  	0.00000  	0.00000  
47.77038  	33.30042  	4.86254  	5.07591  	27.76373  	-1.18512  	0.02628  	0.17346  	0.17489  	-3.02442  	0.00702  	-0.08582  	-70.21938  	-1.05776  	51.61554  	51.19379  	-20390.75975  	-4178.11461  	0.00428  	0.00002  	0.00402  	0.00450  	0.00477  	0.00000  	0.00000  
48.77062  	33.30070  	4.86288  	5.07521  	27.76335  	-1.18512  	0.02673  	0.17535  	0.17795  	-3.02442  	0.00545  	-0.08581  	-70.22773  	-1.05259  	52.52098  	51.75200  	-20390.73504  	-4178.09380  	0.00428  	0.00002  	0.00402  	0.00451  	0.00478  	0.00000  	0.00000  
49.77024  	33.30038  	4.86289  	5.07401  	27.76313  	-1.18512  	0.02662  	0.17588  	0.17777  	-3.02442  	0.00648  	-0.08583  	-70.22663  	-1.04658  	52.46591  	51.90804  	-20390.61755  	-4178.02229  	0.00428  	0.00002  	0.00402  	0.00451  	0.00479  	0.00000  	0.00000  
50.77075  	33.30086  	4.86234  	5.07441  	27.76426  	-1.18512  	0.02706  	0.17694  	0.17501  	-3.02442  	0.00707  	-0.08579  	-70.21823  	-1.05132  	51.65198  	52.22241  	-20390.97103  	-4178.01362  	0.00428  	0.00002  	0.00402  	0.00452  	0.00479  	0.00000  	0.00000  
51.77133  	33.30043  	4.86149  	5.07425  	27.76645  	-1.18512  	0.02597  	0.17736  	0.17792  	-3.02442  	0.00692  	-0.08567  	-70.18511  	-1.05473  	52.50990  	52.34715  	-20391.35698  	-4177.95332  	0.00428  	0.00003  	0.00402  	0.00450  	0.00479  	0.00000  	0.00000  
52.77089  	33.29927  	4.86118  	5.07498  	27.76912  	-1.18512  	0.02719  	0.17871  	0.17449  	-3.02442  	0.00978  	-0.08579  	-70.13643  	-1.05988  	51.50023  	52.74364  	-20391.68759  	-4177.97786  	0.00428  	0.00002  	0.00403  	0.00452  	0.00480  	0.00000  	0.00000  
53.77234  	33.29921  	4.86159  	5.07442  	27.77174  	-1.18512  	0.02539  	0.17807  	0.17802  	-3.02442  	0.00718  	-0.08579  	-70.10259  	-1.05507  	52.54199  	52.55448  	-20392.24818  	-4177.96892  	0.00428  	0.00002  	0.00402  	0.00449  	0.00480  	0.00000  	0.00000  
54.77267  	33.29940  	4.86256  	5.07497  	27.77493  	-1.18512  	0.02709  	0.17758  	0.18271  	-3.02442  	0.01001  	-0.08574  	-70.06441  	-1.05298  	53.92372  	52.41117  	-20392.99019  	-4178.05964  	0.00429  	0.00003  	0.00403  	0.00452  	0.00479  	0.00000  	0.00000  
55.77206  	33.29909  	4.86144  	5.07523  	27.77784  	-1.18512  	0.02469  	0.18066  	0.18064  	-3.02442  	0.00707  	-0.08579  	-70.02360  	-1.05988  	53.31345  	53.32106  	-20393.55853  	-4178.00869  	0.00429  	0.00002  	0.00402  	0.00447  	0.00481  	0.00000  	0.00000  
56.77246  	33.29865  	4.86078  	5.07365  	27.78322  	-1.18512  	0.02657  	0.17961  	0.17973  	-3.02442  	0.00746  	-0.08581  	-69.94981  	-1.05526  	53.04524  	53.00935  	-20394.64186  	-4177.87465  	0.00429  	0.00002  	0.00402  	0.00451  	0.00480  	0.00000  	0.00000  
57.77261  	33.29801  	4.86130  	5.07398  	27.78650  	-1.18512  	0.02641  	0.18026  	0.17694  	-3.02442  	0.00668  	-0.08574  	-69.90010  	-1.05431  	52.22116  	53.20123  	-20395.22210  	-4177.92616  	0.00428  	0.00003  	0.00402  	0.00451  	0.00481  	0.00000  	0.00000  
58.77255  	33.29880  	4.86046  	5.07384  	27.79094  	-1.18512  	0.02706  	0.17982  	0.17794  	-3.02442  	0.00685  	-0.08589  	-69.85377  	-1.05783  	52.51792  	53.07046  	-20396.36731  	-4177.86739  	0.00428  	0.00002  	0.00402  	0.00452  	0.00480  	0.00000  	0.00000  
59.77266  	33.29825  	4.86025  	5.07470  	27.79613  	-1.18512  	0.02593  	0.18038  	0.18676  	-3.02442  	0.00641  	-0.08581  	-69.78100  	-1.06310  	55.12100  	53.23637  	-20397.38323  	-4177.90563  	0.00430  	0.00002  	0.00402  	0.00450  	0.00481  	0.00000  	0.00000  
60.77369  	33.29917  	4.86059  	5.07452  	27.80108  	-1.18512  	0.02624  	0.17880  	0.17868  	-3.02442  	0.00863  	-0.08587  	-69.72995  	-1.06049  	52.73671  	52.77130  	-20398.66907  	-4177.91567  	0.00429  	0.00002  	0.00403  	0.00450  	0.00480  	0.00000  	0.00000  
61.77381  	33.29873  	4.86045  	5.07403  	27.80510  	-1.18512  	0.02772  	0.17715  	0.17710  	-3.02442  	0.00885  	-0.08567  	-69.67333  	-1.05878  	52.26977  	52.28390  	-20399.45357  	-4177.87832  	0.00428  	0.00003  	0.00403  	0.00453  	0.00479  	0.00000  	0.00000  
62.77613  	33.29755  	4.86005  	5.07332  	27.80924  	-1.18512  	0.02801  	0.17491  	0.17915  	-3.02442  	0.01064  	-0.08573  	-69.60585  	-1.05724  	52.87293  	51.62354  	-20400.10322  	-4177.81200  	0.00429  	0.00003  	0.00403  	0.00454  	0.00478  	0.00000  	0.00000  
63.77693  	33.29824  	4.86091  	5.07290  	27.81187  	-1.18512  	0.02611  	0.17737  	0.17221  	-3.02442  	0.00691  	-0.08569  	-69.58132  	-1.05091  	50.82637  	52.34862  	-20400.83115  	-4177.83766  	0.00428  	0.00003  	0.00402  	0.00450  	0.00479  	0.00000  	0.00000  
64.77708  	33.29773  	4.86005  	5.07366  	27.81466  	-1.18512  	0.02764  	0.17640  	0.17258  	-3.02442  	0.00938  	-0.08580  	-69.53951  	-1.05891  	50.93384  	52.06153  	-20401.33044  	-4177.83202  	0.00428  	0.00002  	0.00403  	0.00453  	0.00479  	0.00000  	0.00000  
65.77811  	33.29810  	4.86012  	5.07336  	27.81661  	-1.18512  	0.02637  	0.17493  	0.17487  	-3.02442  	0.00438  	-0.08575  	-69.51939  	-1.05709  	51.61038  	51.62958  	-20401.84048  	-4177.81889  	0.00428  	0.00002  	0.00401  	0.00451  	0.00478  	0.00000  	0.00000  
66.77845  	33.29729  	4.86041  	5.07370  	27.81752  	-1.18512  	0.02607  	0.17276  	0.17726  	-3.02442  	0.00618  	-0.08578  	-69.49759  	-1.05733  	52.31492  	50.98741  	-20401.86064  	-4177.85604  	0.00428  	0.00002  	0.00402  	0.00450  	0.00477  	0.00000  	0.00000  
67.77857  	33.29762  	4.85998  	5.07239  	27.81753  	-1.18512  	0.02501  	0.17331  	0.16751  	-3.02442  	0.00498  	-0.08576  	-69.50170  	-1.05297  	49.43896  	51.14956  	-20401.93642  	-4177.75251  	0.00427  	0.00002  	0.00402  	0.00448  	0.00477  	0.00000  	0.00000  
68.77881  	33.29856  	4.86005  	5.07182  	27.81680  	-1.18512  	0.02678  	0.17081  	0.17342  	-3.02442  	0.00647  	-0.08575  	-69.52283  	-1.04982  	51.18193  	50.41185  	-20401.98303  	-4177.72269  	0.00428  	0.00002  	0.00402  	0.00451  	0.00476  	0.00000  	0.00000  
69.78007  	33.29672  	4.86020  	5.07138  	27.81514  	-1.18512  	0.02578  	0.16951  	0.17270  	-3.02442  	0.00449  	-0.08580  	-69.52050  	-1.04691  	50.96938  	50.02904  	-20401.21413  	-4177.70521  	0.00428  	0.00002  	0.00401  	0.00450  	0.00476  	0.00000  	0.00000  
70.78043  	33.29632  	4.85921  	5.07104  	27.81261  	-1.18512  	0.02422  	0.16783  	0.16920  	-3.02442  	0.00483  	-0.08559  	-69.54759  	-1.05010  	49.93889  	49.53388  	-20400.57337  	-4177.62606  	0.00427  	0.00003  	0.00402  	0.00447  	0.00475  	0.00000  	0.00000  
71.78077  	33.29694  	4.85852  	5.07145  	27.80854  	-1.18512  	0.02544  	0.16568  	0.16622  	-3.02442  	0.00782  	-0.08583  	-69.60701  	-1.05558  	49.05726  	48.89749  	-20399.81674  	-4177.60950  	0.00427  	0.00002  	0.00403  	0.00449  	0.00474  	0.00000  	0.00000  
72.78061  	33.29661  	4.85953  	5.07056  	27.80438  	-1.18512  	0.02594  	0.16475  	0.16458  	-3.02442  	0.00714  	-0.08577  	-69.65574  	-1.04613  	48.57302  	48.62409  	-20398.83202  	-4177.61612  	0.00426  	0.00002  	0.00402  	0.00450  	0.00473  	0.00000  	0.00000  
