10/18/2024 17:05:58Time	T_hot_in(C)	T_cold_in(C)	T_cold_out(C)	T_hot_out(C)	mdot_cold(kg/s)	ASFASIFUAS(kg/s)	Diferencial_cold(bar)	Diferencial_hot(bar)	mdot_hot(kg/s)	ABS_cold(bar)	ABS_hot(bar)	q_cold(kW)	q_hot(kW)	ASFASYFY	Tau_cold_haste	Re_hot	Re_cold	U_global	PSIG_cold(bar)	R_fouling	PSIG_hot(bar)	PSID_hot(bar)	m_dot_hot	PSID_cold(bar)	m_dot_cold
1.75229  	0.00000  	0.00000  	0.00000  	0.00000  	-1.18512  	-0.20833  	-0.86278  	-2.50000  	-3.02442  	-1.25000  	-0.08628  	-0.00000  	-0.00000  	-737.84722  	-254.63905  	-9234.48090  	-3618.55272  	0.00000  	0.00000  	0.00000  	0.00000  	0.00000  	0.00000  	0.00000  
2.75464  	29.58484  	49.61955  	49.46675  	36.86356  	-1.18512  	0.01968  	0.41602  	0.40752  	-3.02442  	0.06116  	-0.08569  	-92.04897  	-0.75746  	120.27538  	122.78343  	-21580.19655  	-11400.31507  	0.00465  	0.00003  	0.00420  	0.00438  	0.00589  	0.00000  	0.00000  
3.75596  	29.58533  	49.62069  	49.46716  	36.86709  	-1.18512  	0.01968  	0.41507  	0.40357  	-3.02442  	0.06140  	-0.08565  	-92.08747  	-0.76110  	119.10925  	122.50228  	-21581.09116  	-11400.45969  	0.00465  	0.00003  	0.00420  	0.00438  	0.00589  	0.00000  	0.00000  
4.75826  	29.58627  	49.62095  	49.46731  	36.87154  	-1.18512  	0.01892  	0.41159  	0.39819  	-3.02442  	0.06291  	-0.08569  	-92.13179  	-0.76161  	117.52105  	121.47674  	-21582.28852  	-11400.49853  	0.00464  	0.00003  	0.00420  	0.00436  	0.00587  	0.00000  	0.00000  
5.76156  	29.58710  	49.62177  	49.46867  	36.87608  	-1.18512  	0.01763  	0.40832  	0.39868  	-3.02442  	0.06197  	-0.08574  	-92.17869  	-0.75894  	117.66522  	120.51139  	-21583.48409  	-11400.70102  	0.00464  	0.00003  	0.00420  	0.00434  	0.00586  	0.00000  	0.00000  
6.76288  	29.58833  	49.62239  	49.47047  	36.88316  	-1.18512  	0.01803  	0.40558  	0.39428  	-3.02442  	0.06098  	-0.08565  	-92.25267  	-0.75309  	116.36693  	119.70117  	-21585.33431  	-11400.92665  	0.00463  	0.00003  	0.00420  	0.00435  	0.00584  	0.00000  	0.00000  
7.76620  	29.58946  	49.62406  	49.47134  	36.89052  	-1.18512  	0.01767  	0.40124  	0.38679  	-3.02442  	0.06188  	-0.08569  	-92.33152  	-0.75707  	114.15625  	118.42052  	-21587.22495  	-11401.16393  	0.00462  	0.00003  	0.00420  	0.00434  	0.00582  	0.00000  	0.00000  
8.76952  	29.59001  	49.62398  	49.47280  	36.90050  	-1.18512  	0.01912  	0.39750  	0.38339  	-3.02442  	0.06135  	-0.08574  	-92.45071  	-0.74944  	113.15203  	117.31855  	-21589.56671  	-11401.29313  	0.00461  	0.00003  	0.00420  	0.00437  	0.00581  	0.00000  	0.00000  
9.77084  	29.59102  	49.62510  	49.47340  	36.91016  	-1.18512  	0.01930  	0.39951  	0.38908  	-3.02442  	0.06143  	-0.08562  	-92.56021  	-0.75201  	114.83168  	117.91089  	-21591.94321  	-11401.45282  	0.00462  	0.00003  	0.00420  	0.00437  	0.00582  	0.00000  	0.00000  
10.77418  	29.59241  	49.62611  	49.47535  	36.92010  	-1.18512  	0.01794  	0.40506  	0.39341  	-3.02442  	0.06366  	-0.08571  	-92.66819  	-0.74737  	116.10939  	119.54749  	-21594.46538  	-11401.72874  	0.00463  	0.00003  	0.00420  	0.00434  	0.00584  	0.00000  	0.00000  
11.77747  	29.59406  	49.62711  	49.47605  	36.93173  	-1.18512  	0.01822  	0.40926  	0.39478  	-3.02442  	0.06268  	-0.08561  	-92.79449  	-0.74879  	116.51391  	120.78985  	-21597.42096  	-11401.88774  	0.00463  	0.00003  	0.00420  	0.00435  	0.00586  	0.00000  	0.00000  
12.77882  	29.59583  	49.62804  	49.47612  	36.94386  	-1.18512  	0.01959  	0.41290  	0.39786  	-3.02442  	0.06146  	-0.08564  	-92.92548  	-0.75307  	117.42478  	121.86188  	-21600.51510  	-11401.98131  	0.00464  	0.00003  	0.00420  	0.00438  	0.00588  	0.00000  	0.00000  
13.78214  	29.59807  	49.62898  	49.47665  	36.95298  	-1.18512  	0.01981  	0.41497  	0.40349  	-3.02442  	0.06256  	-0.08565  	-93.01255  	-0.75512  	119.08525  	122.47418  	-21603.04476  	-11402.11733  	0.00465  	0.00003  	0.00420  	0.00438  	0.00589  	0.00000  	0.00000  
14.78545  	29.60077  	49.62972  	49.47878  	36.96106  	-1.18512  	0.01915  	0.41995  	0.40868  	-3.02442  	0.06171  	-0.08561  	-93.08046  	-0.74822  	120.61690  	123.94317  	-21605.44480  	-11402.38543  	0.00465  	0.00003  	0.00420  	0.00437  	0.00591  	0.00000  	0.00000  
15.78578  	29.60258  	49.63129  	49.47926  	36.96761  	-1.18512  	0.01984  	0.42449  	0.41158  	-3.02442  	0.06122  	-0.08563  	-93.14054  	-0.75364  	121.47331  	125.28438  	-21607.30436  	-11402.57702  	0.00466  	0.00003  	0.00420  	0.00438  	0.00593  	0.00000  	0.00000  
16.78906  	29.60536  	49.63300  	49.48139  	36.97218  	-1.18512  	0.01982  	0.43009  	0.41998  	-3.02442  	0.06184  	-0.08572  	-93.16308  	-0.75155  	123.95160  	126.93755  	-21608.94076  	-11402.93483  	0.00467  	0.00003  	0.00420  	0.00438  	0.00596  	0.00000  	0.00000  
17.79238  	29.60829  	49.63333  	49.48161  	36.97590  	-1.18512  	0.01947  	0.43359  	0.42104  	-3.02442  	0.06144  	-0.08567  	-93.17304  	-0.75209  	124.26574  	127.96923  	-21610.42248  	-11402.98569  	0.00467  	0.00003  	0.00420  	0.00437  	0.00597  	0.00000  	0.00000  
18.79570  	29.61189  	49.63419  	49.48302  	36.97790  	-1.18512  	0.01938  	0.43758  	0.42594  	-3.02442  	0.06050  	-0.08561  	-93.15284  	-0.74940  	125.71135  	129.14587  	-21611.66765  	-11403.19798  	0.00468  	0.00003  	0.00419  	0.00437  	0.00599  	0.00000  	0.00000  
19.79705  	29.61386  	49.63611  	49.48490  	36.97690  	-1.18512  	0.02027  	0.44077  	0.43004  	-3.02442  	0.06269  	-0.08572  	-93.11538  	-0.74956  	126.92261  	130.08956  	-21611.88466  	-11403.55188  	0.00469  	0.00003  	0.00420  	0.00439  	0.00601  	0.00000  	0.00000  
20.80033  	29.61737  	49.63779  	49.48622  	36.97474  	-1.18512  	0.02041  	0.44376  	0.43108  	-3.02442  	0.06111  	-0.08571  	-93.04363  	-0.75137  	127.22930  	130.97007  	-21612.18668  	-11403.83186  	0.00469  	0.00003  	0.00420  	0.00439  	0.00602  	0.00000  	0.00000  
21.80266  	29.61956  	49.63914  	49.48579  	36.97040  	-1.18512  	0.02028  	0.44598  	0.42986  	-3.02442  	0.06161  	-0.08582  	-92.96106  	-0.76020  	126.86928  	131.62511  	-21611.70586  	-11403.91800  	0.00469  	0.00002  	0.00420  	0.00439  	0.00603  	0.00000  	0.00000  
22.80400  	29.62226  	49.63950  	49.48612  	36.96507  	-1.18512  	0.02087  	0.44827  	0.43577  	-3.02442  	0.06195  	-0.08567  	-92.85948  	-0.76032  	128.61323  	132.30332  	-21611.12258  	-11403.98182  	0.00470  	0.00003  	0.00420  	0.00440  	0.00604  	0.00000  	0.00000  
23.80732  	29.62547  	49.64060  	49.48823  	36.95776  	-1.18512  	0.01949  	0.45160  	0.44309  	-3.02442  	0.06172  	-0.08567  	-92.72636  	-0.75532  	130.77433  	133.28486  	-21610.20800  	-11404.28140  	0.00471  	0.00003  	0.00420  	0.00437  	0.00606  	0.00000  	0.00000  
24.81064  	29.62795  	49.64291  	49.48970  	36.95027  	-1.18512  	0.02109  	0.45342  	0.44333  	-3.02442  	0.06253  	-0.08572  	-92.60031  	-0.75948  	130.84249  	133.82303  	-21609.09252  	-11404.63385  	0.00471  	0.00003  	0.00420  	0.00440  	0.00606  	0.00000  	0.00000  
25.81196  	29.62956  	49.64394  	49.49060  	36.94261  	-1.18512  	0.02073  	0.45288  	0.44271  	-3.02442  	0.06464  	-0.08568  	-92.48306  	-0.76013  	130.65959  	133.66275  	-21607.74644  	-11404.81482  	0.00471  	0.00003  	0.00421  	0.00440  	0.00606  	0.00000  	0.00000  
26.81524  	29.63160  	49.64499  	49.49172  	36.93382  	-1.18512  	0.01985  	0.44958  	0.44182  	-3.02442  	0.05978  	-0.08567  	-92.34624  	-0.75976  	130.39879  	132.68754  	-21606.24333  	-11405.01605  	0.00471  	0.00003  	0.00419  	0.00438  	0.00605  	0.00000  	0.00000  
27.81759  	29.63295  	49.64734  	49.49219  	36.92441  	-1.18512  	0.02110  	0.44806  	0.43714  	-3.02442  	0.06261  	-0.08570  	-92.21001  	-0.76910  	129.01701  	132.23847  	-21604.44939  	-11405.27997  	0.00470  	0.00003  	0.00420  	0.00441  	0.00604  	0.00000  	0.00000  
28.81891  	29.63427  	49.64839  	49.49394  	36.91542  	-1.18512  	0.02006  	0.44436  	0.43638  	-3.02442  	0.06164  	-0.08562  	-92.07963  	-0.76565  	128.79229  	131.14667  	-21602.74239  	-11405.54014  	0.00470  	0.00003  	0.00420  	0.00439  	0.00602  	0.00000  	0.00000  
29.82223  	29.63503  	49.64971  	49.49536  	36.90811  	-1.18512  	0.02094  	0.44230  	0.42937  	-3.02442  	0.06270  	-0.08574  	-91.97769  	-0.76513  	126.72422  	130.54043  	-21601.28327  	-11405.79535  	0.00469  	0.00003  	0.00420  	0.00440  	0.00601  	0.00000  	0.00000  
30.82452  	29.63673  	49.65074  	49.49616  	36.90070  	-1.18512  	0.02133  	0.43987  	0.42799  	-3.02442  	0.06153  	-0.08578  	-91.86236  	-0.76625  	126.31507  	129.82324  	-21600.01187  	-11405.96637  	0.00468  	0.00002  	0.00420  	0.00441  	0.00600  	0.00000  	0.00000  
31.82584  	29.63719  	49.65237  	49.49826  	36.89468  	-1.18512  	0.02070  	0.43703  	0.42283  	-3.02442  	0.06241  	-0.08564  	-91.78049  	-0.76391  	124.79297  	128.98422  	-21598.77378  	-11406.31455  	0.00468  	0.00003  	0.00420  	0.00440  	0.00599  	0.00000  	0.00000  
32.82916  	29.63751  	49.65335  	49.49890  	36.88988  	-1.18512  	0.02013  	0.43256  	0.42050  	-3.02442  	0.05914  	-0.08563  	-91.71577  	-0.76563  	124.10615  	127.66488  	-21597.77621  	-11406.46553  	0.00467  	0.00003  	0.00419  	0.00439  	0.00597  	0.00000  	0.00000  
33.83247  	29.63786  	49.65459  	49.50115  	36.88761  	-1.18512  	0.01958  	0.43062  	0.42058  	-3.02442  	0.06196  	-0.08574  	-91.68264  	-0.76065  	124.12877  	127.09413  	-21597.34909  	-11406.79136  	0.00467  	0.00003  	0.00420  	0.00438  	0.00596  	0.00000  	0.00000  
34.83379  	29.63853  	49.65588  	49.50204  	36.88540  	-1.18512  	0.02024  	0.42729  	0.41570  	-3.02442  	0.06279  	-0.08568  	-91.64623  	-0.76263  	122.69014  	126.10925  	-21597.00587  	-11406.99431  	0.00467  	0.00003  	0.00420  	0.00439  	0.00594  	0.00000  	0.00000  
35.83711  	29.63911  	49.65747  	49.50323  	36.88458  	-1.18512  	0.02051  	0.42497  	0.40964  	-3.02442  	0.06056  	-0.08570  	-91.62856  	-0.76461  	120.90206  	125.42399  	-21596.95418  	-11407.25361  	0.00466  	0.00003  	0.00419  	0.00439  	0.00593  	0.00000  	0.00000  
36.84045  	29.63970  	49.65930  	49.50432  	36.88544  	-1.18512  	0.01891  	0.42109  	0.41035  	-3.02442  	0.06179  	-0.08576  	-91.63181  	-0.76826  	121.10932  	124.28045  	-21597.27648  	-11407.52571  	0.00466  	0.00002  	0.00420  	0.00436  	0.00592  	0.00000  	0.00000  
37.84177  	29.64006  	49.66062  	49.50554  	36.88829  	-1.18512  	0.01882  	0.41873  	0.40574  	-3.02442  	0.06213  	-0.08566  	-91.66332  	-0.76875  	119.75053  	123.58418  	-21597.98983  	-11407.76252  	0.00465  	0.00003  	0.00420  	0.00436  	0.00590  	0.00000  	0.00000  
38.84407  	29.64057  	49.66254  	49.50638  	36.89167  	-1.18512  	0.01956  	0.41351  	0.40631  	-3.02442  	0.06272  	-0.08567  	-91.69962  	-0.77415  	119.91642  	122.04142  	-21598.85615  	-11408.02069  	0.00465  	0.00003  	0.00420  	0.00438  	0.00588  	0.00000  	0.00000  
39.84741  	29.64079  	49.66403  	49.50878  	36.89703  	-1.18512  	0.01871  	0.41191  	0.40132  	-3.02442  	0.06209  	-0.08571  	-91.76467  	-0.76961  	118.44585  	121.57115  	-21600.10066  	-11408.38289  	0.00464  	0.00003  	0.00420  	0.00436  	0.00587  	0.00000  	0.00000  
40.84873  	29.64239  	49.66471  	49.51110  	36.90347  	-1.18512  	0.01986  	0.40826  	0.39479  	-3.02442  	0.06015  	-0.08570  	-91.82588  	-0.76147  	116.51911  	120.49470  	-21601.88834  	-11408.66274  	0.00463  	0.00003  	0.00419  	0.00438  	0.00586  	0.00000  	0.00000  
41.85002  	29.64226  	49.66603  	49.51326  	36.91140  	-1.18512  	0.02066  	0.40551  	0.39227  	-3.02442  	0.06363  	-0.08572  	-91.92788  	-0.75728  	115.77300  	119.68247  	-21603.62478  	-11408.98815  	0.00463  	0.00003  	0.00420  	0.00440  	0.00584  	0.00000  	0.00000  
42.85334  	29.64262  	49.66856  	49.51443  	36.91938  	-1.18512  	0.01811  	0.40209  	0.38842  	-3.02442  	0.06234  	-0.08566  	-92.02416  	-0.76409  	114.63801  	118.67093  	-21605.48056  	-11409.33297  	0.00462  	0.00003  	0.00420  	0.00435  	0.00583  	0.00000  	0.00000  
43.85666  	29.64365  	49.66958  	49.51661  	36.92968  	-1.18512  	0.01798  	0.40290  	0.39198  	-3.02442  	0.06161  	-0.08561  	-92.14131  	-0.75828  	115.68787  	118.91179  	-21608.00430  	-11409.63208  	0.00463  	0.00003  	0.00420  	0.00435  	0.00583  	0.00000  	0.00000  
44.85800  	29.64463  	49.67082  	49.51865  	36.94013  	-1.18512  	0.01929  	0.40914  	0.39378  	-3.02442  	0.06195  	-0.08577  	-92.26116  	-0.75434  	116.21967  	120.75253  	-21610.54940  	-11409.93706  	0.00463  	0.00002  	0.00420  	0.00437  	0.00586  	0.00000  	0.00000  
45.86130  	29.64587  	49.67346  	49.51950  	36.95054  	-1.18512  	0.01802  	0.41151  	0.39677  	-3.02442  	0.06155  	-0.08569  	-92.37716  	-0.76317  	117.10137  	121.45172  	-21613.14332  	-11410.26283  	0.00463  	0.00003  	0.00420  	0.00435  	0.00587  	0.00000  	0.00000  
46.86461  	29.64702  	49.67503  	49.52281  	36.96073  	-1.18512  	0.02012  	0.41805  	0.40301  	-3.02442  	0.06120  	-0.08570  	-92.49147  	-0.75457  	118.94447  	123.38409  	-21615.66646  	-11410.71777  	0.00464  	0.00003  	0.00420  	0.00439  	0.00590  	0.00000  	0.00000  
47.86593  	29.64939  	49.67707  	49.52403  	36.97076  	-1.18512  	0.01995  	0.42129  	0.40842  	-3.02442  	0.06204  	-0.08571  	-92.58837  	-0.75867  	120.54155  	124.33879  	-21618.42820  	-11411.02216  	0.00465  	0.00003  	0.00420  	0.00438  	0.00592  	0.00000  	0.00000  
48.86925  	29.65142  	49.67741  	49.52451  	36.97882  	-1.18512  	0.02034  	0.42548  	0.41428  	-3.02442  	0.06193  	-0.08572  	-92.66461  	-0.75794  	122.27158  	125.57523  	-21620.67424  	-11411.09821  	0.00466  	0.00003  	0.00420  	0.00439  	0.00594  	0.00000  	0.00000  
49.87158  	29.65416  	49.67951  	49.52706  	36.98509  	-1.18512  	0.02055  	0.42881  	0.41917  	-3.02442  	0.06287  	-0.08568  	-92.70923  	-0.75569  	123.71393  	126.55739  	-21622.67970  	-11411.53215  	0.00467  	0.00003  	0.00420  	0.00439  	0.00595  	0.00000  	0.00000  
50.87189  	29.65653  	49.68109  	49.52855  	36.98906  	-1.18512  	0.02130  	0.43320  	0.42219  	-3.02442  	0.06282  	-0.08575  	-92.72946  	-0.75619  	124.60402  	127.85372  	-21624.09530  	-11411.81932  	0.00468  	0.00002  	0.00420  	0.00441  	0.00597  	0.00000  	0.00000  
51.87421  	29.65903  	49.68367  	49.52964  	36.99150  	-1.18512  	0.02080  	0.43632  	0.42561  	-3.02442  	0.06257  	-0.08565  	-92.72864  	-0.76353  	125.61286  	128.77517  	-21625.19273  	-11412.16151  	0.00468  	0.00003  	0.00420  	0.00440  	0.00599  	0.00000  	0.00000  
52.87755  	29.66204  	49.68502  	49.53183  	36.99170  	-1.18512  	0.02048  	0.44012  	0.42963  	-3.02442  	0.06250  	-0.08577  	-92.69312  	-0.75936  	126.80132  	129.89510  	-21625.90936  	-11412.49152  	0.00469  	0.00002  	0.00420  	0.00439  	0.00600  	0.00000  	0.00000  
53.87888  	29.66371  	49.68631  	49.53333  	36.99100  	-1.18512  	0.02015  	0.44275  	0.43177  	-3.02442  	0.06187  	-0.08576  	-92.66320  	-0.75836  	127.43200  	130.67252  	-21626.12543  	-11412.75134  	0.00469  	0.00002  	0.00420  	0.00439  	0.00602  	0.00000  	0.00000  
54.88219  	29.66519  	49.68811  	49.53499  	36.98859  	-1.18512  	0.02048  	0.44628  	0.43338  	-3.02442  	0.06152  	-0.08566  	-92.61403  	-0.75900  	127.90731  	131.71377  	-21625.91830  	-11413.07443  	0.00469  	0.00003  	0.00420  	0.00439  	0.00603  	0.00000  	0.00000  
55.88448  	29.66770  	49.69103  	49.53596  	36.98477  	-1.18512  	0.02077  	0.44749  	0.43321  	-3.02442  	0.06109  	-0.08574  	-92.53400  	-0.76875  	127.85661  	132.07231  	-21625.62565  	-11413.43756  	0.00469  	0.00003  	0.00420  	0.00440  	0.00604  	0.00000  	0.00000  
56.88580  	29.67005  	49.69236  	49.53776  	36.97895  	-1.18512  	0.01977  	0.45053  	0.43985  	-3.02442  	0.06279  	-0.08564  	-92.43068  	-0.76635  	129.81605  	132.96800  	-21624.85329  	-11413.72926  	0.00470  	0.00003  	0.00420  	0.00438  	0.00605  	0.00000  	0.00000  
57.88813  	29.67182  	49.69431  	49.53879  	36.97283  	-1.18512  	0.02115  	0.45226  	0.44072  	-3.02442  	0.06206  	-0.08568  	-92.33076  	-0.77095  	130.07433  	133.48079  	-21623.88415  	-11414.00719  	0.00471  	0.00003  	0.00420  	0.00441  	0.00606  	0.00000  	0.00000  
58.89144  	29.67372  	49.69481  	49.53990  	36.96567  	-1.18512  	0.02052  	0.45115  	0.44038  	-3.02442  	0.06217  	-0.08570  	-92.21625  	-0.76792  	129.97228  	133.15289  	-21622.71386  	-11414.15814  	0.00470  	0.00003  	0.00420  	0.00439  	0.00605  	0.00000  	0.00000  
59.89276  	29.67545  	49.69775  	49.54154  	36.95717  	-1.18512  	0.02060  	0.44936  	0.43870  	-3.02442  	0.06190  	-0.08572  	-92.08689  	-0.77435  	129.47789  	132.62244  	-21621.20646  	-11414.58569  	0.00470  	0.00003  	0.00420  	0.00440  	0.00605  	0.00000  	0.00000  
60.89508  	29.67748  	49.69881  	49.54402  	36.94982  	-1.18512  	0.02091  	0.44687  	0.43306  	-3.02442  	0.06317  	-0.08571  	-91.96817  	-0.76732  	127.81156  	131.88955  	-21620.02108  	-11414.91549  	0.00469  	0.00003  	0.00420  	0.00440  	0.00603  	0.00000  	0.00000  
61.89840  	29.67702  	49.70104  	49.54515  	36.94221  	-1.18512  	0.02065  	0.44339  	0.42883  	-3.02442  	0.06136  	-0.08572  	-91.87790  	-0.77280  	126.56346  	130.86218  	-21618.22326  	-11415.22860  	0.00469  	0.00003  	0.00420  	0.00440  	0.00602  	0.00000  	0.00000  
62.89974  	29.67826  	49.70211  	49.54788  	36.93545  	-1.18512  	0.02141  	0.43804  	0.42716  	-3.02442  	0.06219  	-0.08567  	-91.77661  	-0.76452  	126.07196  	129.28397  	-21616.99488  	-11415.58317  	0.00468  	0.00003  	0.00420  	0.00441  	0.00599  	0.00000  	0.00000  
63.90203  	29.67810  	49.70467  	49.54916  	36.92868  	-1.18512  	0.02103  	0.43631  	0.42399  	-3.02442  	0.06269  	-0.08567  	-91.69302  	-0.77087  	125.13493  	128.77078  	-21615.45089  	-11415.94198  	0.00468  	0.00003  	0.00420  	0.00440  	0.00599  	0.00000  	0.00000  
64.90537  	29.67841  	49.70603  	49.55081  	36.92477  	-1.18512  	0.02019  	0.43257  	0.41920  	-3.02442  	0.06259  	-0.08562  	-91.63966  	-0.76943  	123.72162  	127.66830  	-21614.65012  	-11416.22211  	0.00467  	0.00003  	0.00420  	0.00439  	0.00597  	0.00000  	0.00000  
65.90867  	29.67859  	49.70829  	49.55310  	36.92118  	-1.18512  	0.02014  	0.43023  	0.41810  	-3.02442  	0.06087  	-0.08565  	-91.59207  	-0.76932  	123.39727  	126.97674  	-21613.89114  	-11416.64697  	0.00467  	0.00003  	0.00419  	0.00439  	0.00596  	0.00000  	0.00000  
66.91002  	29.67851  	49.71025  	49.55369  	36.92047  	-1.18512  	0.02015  	0.42593  	0.41864  	-3.02442  	0.06164  	-0.08565  	-91.58405  	-0.77607  	123.55744  	125.70946  	-21613.71413  	-11416.88478  	0.00467  	0.00003  	0.00420  	0.00439  	0.00594  	0.00000  	0.00000  
67.91330  	29.67764  	49.71078  	49.55593  	36.92037  	-1.18512  	0.01870  	0.42213  	0.41143  	-3.02442  	0.06106  	-0.08569  	-91.59378  	-0.76762  	121.43036  	124.58758  	-21613.49748  	-11417.14231  	0.00466  	0.00003  	0.00420  	0.00436  	0.00592  	0.00000  	0.00000  
68.91662  	29.67838  	49.71215  	49.55725  	36.92111  	-1.18512  	0.01965  	0.42034  	0.40842  	-3.02442  	0.06212  	-0.08571  	-91.59380  	-0.76789  	120.54169  	124.05772  	-21613.82963  	-11417.39438  	0.00465  	0.00003  	0.00420  	0.00438  	0.00591  	0.00000  	0.00000  
69.91797  	29.67795  	49.71469  	49.55988  	36.92388  	-1.18512  	0.01848  	0.41696  	0.40514  	-3.02442  	0.06252  	-0.08568  	-91.63421  	-0.76745  	119.57113  	123.06218  	-21614.34971  	-11417.87612  	0.00465  	0.00003  	0.00420  	0.00435  	0.00590  	0.00000  	0.00000  
70.92029  	29.67845  	49.71601  	49.56143  	36.92759  	-1.18512  	0.01919  	0.41433  	0.40062  	-3.02442  	0.06179  	-0.08571  	-91.67477  	-0.76627  	118.23983  	122.28379  	-21615.28701  	-11418.14368  	0.00464  	0.00003  	0.00420  	0.00437  	0.00588  	0.00000  	0.00000  
71.92358  	29.67890  	49.71882  	49.56380  	36.93452  	-1.18512  	0.01935  	0.41031  	0.39958  	-3.02442  	0.06155  	-0.08566  	-91.75690  	-0.76845  	117.93199  	121.09940  	-21616.92996  	-11418.62820  	0.00464  	0.00003  	0.00420  	0.00437  	0.00587  	0.00000  	0.00000  
